"Test Type","Manual"
"Method Name:","C:\INSTRON\user\template\Sp15_245Lsect001_group-01_pps_bulk_tensiletest.mtM"
"Name:","4FtPerMin"
"Operator ID:","Jaques"
"Company:","BSU"
"Lab name:",""
"Test date:","1/17/22"
"Temperature:",""
"Humidity:",""
"Note 1:",""
"Note 2:",""
"Note 3:",""
"Geometry:","Circular"
"Specimen",0
"Specimen name:",""
"Width:",6.350000,"mm"
"Thickness:",1.524000,"mm"
"Length:",12.000000,"mm"
"Diameter:",5.000000,"um"
"Inner diameter:",0.500000,"mm"
"Outer diameter:",1.000000,"mm"
"Wall thickness:",0.500000,"mm"
"Area:",19.634954,"um*um"
"Linear density:",1.000000,"den"
"Sled weight:",9.806650,"N"
"Loading span:",0.000000,"mm"
"Support span:",1.000000,"mm"
"Span ratio:","2"
"Fixture type:","3-point"
"Comment:",""
"Included"
"Time sec","Stress Pa","Cycle Count","Total Cycle Count","Repetitions Count","Strain [Exten.] %"
0.000 -38.902 0.000 0.000 0.000 0.000 
0.010 56.786 0.000 0.000 0.000 0.006 
0.020 38.398 0.000 0.000 0.000 0.012 
0.030 88.426 0.000 0.000 0.000 0.018 
0.040 59.164 0.000 0.000 0.000 0.024 
0.050 61.417 0.000 0.000 0.000 0.030 
0.060 118.898 0.000 0.000 0.000 0.036 
0.070 136.100 0.000 0.000 0.000 0.042 
0.080 199.663 0.000 0.000 0.000 0.048 
0.090 223.823 0.000 0.000 0.000 0.054 
0.100 236.433 0.000 0.000 0.000 0.060 
0.110 268.135 0.000 0.000 0.000 0.066 
0.120 259.173 0.000 0.000 0.000 0.072 
0.130 265.723 0.000 0.000 0.000 0.078 
0.140 320.421 0.000 0.000 0.000 0.084 
0.150 395.219 0.000 0.000 0.000 0.090 
0.160 381.494 0.000 0.000 0.000 0.096 
0.170 351.484 0.000 0.000 0.000 0.102 
0.180 394.807 0.000 0.000 0.000 0.108 
0.190 354.196 0.000 0.000 0.000 0.114 
0.200 392.039 0.000 0.000 0.000 0.120 
0.210 546.777 0.000 0.000 0.000 0.126 
0.220 472.198 0.000 0.000 0.000 0.132 
0.230 503.629 0.000 0.000 0.000 0.138 
0.240 594.406 0.000 0.000 0.000 0.144 
0.250 506.140 0.000 0.000 0.000 0.150 
0.260 575.240 0.000 0.000 0.000 0.156 
0.270 610.115 0.000 0.000 0.000 0.162 
0.280 647.487 0.000 0.000 0.000 0.168 
0.290 640.327 0.000 0.000 0.000 0.174 
0.300 623.448 0.000 0.000 0.000 0.180 
0.310 704.704 0.000 0.000 0.000 0.186 
0.320 731.690 0.000 0.000 0.000 0.192 
0.330 775.944 0.000 0.000 0.000 0.198 
0.340 853.079 0.000 0.000 0.000 0.204 
0.350 760.193 0.000 0.000 0.000 0.210 
0.360 733.151 0.000 0.000 0.000 0.216 
0.370 770.989 0.000 0.000 0.000 0.222 
0.380 918.919 0.000 0.000 0.000 0.228 
0.390 902.057 0.000 0.000 0.000 0.234 
0.400 840.356 0.000 0.000 0.000 0.240 
0.410 905.530 0.000 0.000 0.000 0.246 
0.420 931.272 0.000 0.000 0.000 0.252 
0.430 1029.731 0.000 0.000 0.000 0.258 
0.440 1011.409 0.000 0.000 0.000 0.264 
0.450 1005.990 0.000 0.000 0.000 0.270 
0.460 1045.598 0.000 0.000 0.000 0.276 
0.470 1030.455 0.000 0.000 0.000 0.282 
0.480 1106.956 0.000 0.000 0.000 0.288 
0.490 1093.645 0.000 0.000 0.000 0.294 
0.501 1162.935 0.000 0.000 0.000 0.300 
0.511 1140.545 0.000 0.000 0.000 0.306 
0.521 1178.601 0.000 0.000 0.000 0.312 
0.531 1186.140 0.000 0.000 0.000 0.318 
0.541 1210.438 0.000 0.000 0.000 0.324 
0.551 1237.857 0.000 0.000 0.000 0.330 
0.561 1237.510 0.000 0.000 0.000 0.336 
0.571 1248.811 0.000 0.000 0.000 0.342 
0.581 1320.075 0.000 0.000 0.000 0.348 
0.591 1291.066 0.000 0.000 0.000 0.354 
0.601 1361.800 0.000 0.000 0.000 0.360 
0.611 1334.739 0.000 0.000 0.000 0.366 
0.621 1319.019 0.000 0.000 0.000 0.372 
0.631 1411.210 0.000 0.000 0.000 0.378 
0.641 1413.726 0.000 0.000 0.000 0.384 
0.651 1504.503 0.000 0.000 0.000 0.390 
0.661 1499.961 0.000 0.000 0.000 0.396 
0.671 1513.016 0.000 0.000 0.000 0.402 
0.681 1529.369 0.000 0.000 0.000 0.408 
0.691 1508.214 0.000 0.000 0.000 0.414 
0.701 1594.809 0.000 0.000 0.000 0.420 
0.711 1610.655 0.000 0.000 0.000 0.426 
0.721 1673.858 0.000 0.000 0.000 0.432 
0.731 1643.724 0.000 0.000 0.000 0.438 
0.741 1719.665 0.000 0.000 0.000 0.444 
0.751 1680.661 0.000 0.000 0.000 0.450 
0.761 1744.743 0.000 0.000 0.000 0.456 
0.771 1770.962 0.000 0.000 0.000 0.462 
0.781 1782.465 0.000 0.000 0.000 0.468 
0.791 1785.420 0.000 0.000 0.000 0.474 
0.801 1894.949 0.000 0.000 0.000 0.480 
0.811 1845.596 0.000 0.000 0.000 0.486 
0.821 1811.788 0.000 0.000 0.000 0.492 
0.831 1874.611 0.000 0.000 0.000 0.498 
0.841 1897.376 0.000 0.000 0.000 0.505 
0.851 1920.983 0.000 0.000 0.000 0.511 
0.861 1891.179 0.000 0.000 0.000 0.517 
0.871 2011.033 0.000 0.000 0.000 0.523 
0.881 2014.236 0.000 0.000 0.000 0.529 
0.891 2023.806 0.000 0.000 0.000 0.535 
0.901 2066.752 0.000 0.000 0.000 0.541 
0.911 2036.709 0.000 0.000 0.000 0.547 
0.921 2102.804 0.000 0.000 0.000 0.553 
0.931 2098.304 0.000 0.000 0.000 0.559 
0.941 2127.277 0.000 0.000 0.000 0.565 
0.951 2162.700 0.000 0.000 0.000 0.571 
0.961 2198.304 0.000 0.000 0.000 0.577 
0.971 2168.854 0.000 0.000 0.000 0.583 
0.981 2247.820 0.000 0.000 0.000 0.589 
0.991 2232.920 0.000 0.000 0.000 0.595 
1.001 2253.543 0.000 0.000 0.000 0.601 
1.011 2283.610 0.000 0.000 0.000 0.607 
1.021 2341.905 0.000 0.000 0.000 0.613 
1.031 2339.849 0.000 0.000 0.000 0.619 
1.041 2298.958 0.000 0.000 0.000 0.625 
1.051 2380.794 0.000 0.000 0.000 0.631 
1.061 2429.142 0.000 0.000 0.000 0.637 
1.071 2429.348 0.000 0.000 0.000 0.643 
1.081 2483.439 0.000 0.000 0.000 0.649 
1.091 2491.907 0.000 0.000 0.000 0.655 
1.101 2494.495 0.000 0.000 0.000 0.661 
1.111 2493.327 0.000 0.000 0.000 0.667 
1.121 2512.511 0.000 0.000 0.000 0.673 
1.131 2564.409 0.000 0.000 0.000 0.679 
1.141 2571.958 0.000 0.000 0.000 0.685 
1.151 2621.648 0.000 0.000 0.000 0.691 
1.161 2645.488 0.000 0.000 0.000 0.697 
1.171 2608.797 0.000 0.000 0.000 0.703 
1.181 2646.846 0.000 0.000 0.000 0.709 
1.191 2732.570 0.000 0.000 0.000 0.715 
1.201 2783.393 0.000 0.000 0.000 0.721 
1.211 2785.291 0.000 0.000 0.000 0.727 
1.221 2806.634 0.000 0.000 0.000 0.733 
1.231 2773.743 0.000 0.000 0.000 0.739 
1.241 2788.317 0.000 0.000 0.000 0.745 
1.251 2805.974 0.000 0.000 0.000 0.751 
1.261 2824.031 0.000 0.000 0.000 0.757 
1.271 2859.580 0.000 0.000 0.000 0.763 
1.281 2983.861 0.000 0.000 0.000 0.769 
1.291 2917.400 0.000 0.000 0.000 0.775 
1.301 2969.763 0.000 0.000 0.000 0.781 
1.311 2973.248 0.000 0.000 0.000 0.787 
1.321 3033.751 0.000 0.000 0.000 0.793 
1.331 2999.104 0.000 0.000 0.000 0.799 
1.341 3051.298 0.000 0.000 0.000 0.805 
1.351 3071.203 0.000 0.000 0.000 0.811 
1.361 3109.656 0.000 0.000 0.000 0.817 
1.371 3086.455 0.000 0.000 0.000 0.823 
1.381 3119.627 0.000 0.000 0.000 0.829 
1.391 3158.697 0.000 0.000 0.000 0.835 
1.401 3184.071 0.000 0.000 0.000 0.841 
1.411 3212.126 0.000 0.000 0.000 0.847 
1.421 3194.519 0.000 0.000 0.000 0.853 
1.431 3280.878 0.000 0.000 0.000 0.859 
1.441 3240.459 0.000 0.000 0.000 0.865 
1.451 3335.387 0.000 0.000 0.000 0.871 
1.461 3327.550 0.000 0.000 0.000 0.877 
1.471 3349.157 0.000 0.000 0.000 0.883 
1.481 3399.264 0.000 0.000 0.000 0.889 
1.491 3366.327 0.000 0.000 0.000 0.895 
1.502 3409.529 0.000 0.000 0.000 0.901 
1.512 3435.160 0.000 0.000 0.000 0.907 
1.522 3424.031 0.000 0.000 0.000 0.913 
1.532 3463.597 0.000 0.000 0.000 0.919 
1.542 3528.613 0.000 0.000 0.000 0.925 
1.552 3495.019 0.000 0.000 0.000 0.931 
1.562 3545.199 0.000 0.000 0.000 0.937 
1.572 3582.722 0.000 0.000 0.000 0.943 
1.582 3560.864 0.000 0.000 0.000 0.949 
1.592 3653.433 0.000 0.000 0.000 0.955 
1.602 3617.633 0.000 0.000 0.000 0.961 
1.612 3688.289 0.000 0.000 0.000 0.967 
1.622 3719.147 0.000 0.000 0.000 0.973 
1.632 3692.261 0.000 0.000 0.000 0.979 
1.642 3714.854 0.000 0.000 0.000 0.985 
1.652 3711.357 0.000 0.000 0.000 0.991 
1.662 3741.467 0.000 0.000 0.000 0.997 
1.672 3810.715 0.000 0.000 0.000 1.003 
1.682 3781.764 0.000 0.000 0.000 1.009 
1.692 3835.302 0.000 0.000 0.000 1.015 
1.702 3856.464 0.000 0.000 0.000 1.021 
1.712 3868.961 0.000 0.000 0.000 1.027 
1.722 3970.084 0.000 0.000 0.000 1.033 
1.732 3954.063 0.000 0.000 0.000 1.039 
1.742 3909.830 0.000 0.000 0.000 1.045 
1.752 3955.158 0.000 0.000 0.000 1.051 
1.762 4009.327 0.000 0.000 0.000 1.057 
1.772 4033.997 0.000 0.000 0.000 1.063 
1.782 4031.301 0.000 0.000 0.000 1.069 
1.792 4075.045 0.000 0.000 0.000 1.075 
1.802 4136.452 0.000 0.000 0.000 1.081 
1.812 4094.972 0.000 0.000 0.000 1.087 
1.822 4156.165 0.000 0.000 0.000 1.093 
1.832 4141.476 0.000 0.000 0.000 1.099 
1.842 4201.946 0.000 0.000 0.000 1.105 
1.852 4217.414 0.000 0.000 0.000 1.111 
1.862 4202.286 0.000 0.000 0.000 1.117 
1.872 4296.850 0.000 0.000 0.000 1.123 
1.882 4275.102 0.000 0.000 0.000 1.129 
1.892 4286.391 0.000 0.000 0.000 1.135 
1.902 4292.687 0.000 0.000 0.000 1.141 
1.912 4343.127 0.000 0.000 0.000 1.147 
1.922 4333.791 0.000 0.000 0.000 1.153 
1.932 4414.315 0.000 0.000 0.000 1.159 
1.942 4429.848 0.000 0.000 0.000 1.165 
1.952 4462.402 0.000 0.000 0.000 1.171 
1.962 4464.650 0.000 0.000 0.000 1.177 
1.972 4501.799 0.000 0.000 0.000 1.183 
1.982 4531.912 0.000 0.000 0.000 1.189 
1.992 4568.453 0.000 0.000 0.000 1.195 
2.002 4507.915 0.000 0.000 0.000 1.201 
2.012 4582.454 0.000 0.000 0.000 1.207 
2.022 4600.168 0.000 0.000 0.000 1.213 
2.032 4630.358 0.000 0.000 0.000 1.219 
2.042 4630.478 0.000 0.000 0.000 1.225 
2.052 4699.307 0.000 0.000 0.000 1.231 
2.062 4729.361 0.000 0.000 0.000 1.237 
2.072 4673.374 0.000 0.000 0.000 1.243 
2.082 4707.598 0.000 0.000 0.000 1.249 
2.092 4772.667 0.000 0.000 0.000 1.255 
2.102 4751.373 0.000 0.000 0.000 1.261 
2.112 4805.098 0.000 0.000 0.000 1.267 
2.122 4837.139 0.000 0.000 0.000 1.273 
2.132 4841.869 0.000 0.000 0.000 1.279 
2.142 4845.274 0.000 0.000 0.000 1.285 
2.152 4886.364 0.000 0.000 0.000 1.291 
2.162 4926.391 0.000 0.000 0.000 1.297 
2.172 4934.768 0.000 0.000 0.000 1.303 
2.182 4931.719 0.000 0.000 0.000 1.309 
2.192 4914.524 0.000 0.000 0.000 1.315 
2.202 5041.292 0.000 0.000 0.000 1.321 
2.212 4974.229 0.000 0.000 0.000 1.327 
2.222 5062.266 0.000 0.000 0.000 1.333 
2.232 5092.925 0.000 0.000 0.000 1.339 
2.242 5056.007 0.000 0.000 0.000 1.345 
2.252 5192.281 0.000 0.000 0.000 1.351 
2.262 5105.934 0.000 0.000 0.000 1.357 
2.272 5149.930 0.000 0.000 0.000 1.363 
2.282 5208.407 0.000 0.000 0.000 1.369 
2.292 5174.051 0.000 0.000 0.000 1.375 
2.302 5247.340 0.000 0.000 0.000 1.381 
2.312 5274.943 0.000 0.000 0.000 1.387 
2.322 5266.937 0.000 0.000 0.000 1.393 
2.332 5274.066 0.000 0.000 0.000 1.399 
2.342 5295.598 0.000 0.000 0.000 1.405 
2.352 5301.335 0.000 0.000 0.000 1.411 
2.362 5368.701 0.000 0.000 0.000 1.417 
2.372 5406.038 0.000 0.000 0.000 1.423 
2.382 5405.657 0.000 0.000 0.000 1.429 
2.392 5429.453 0.000 0.000 0.000 1.435 
2.402 5460.275 0.000 0.000 0.000 1.441 
2.412 5488.535 0.000 0.000 0.000 1.447 
2.422 5520.564 0.000 0.000 0.000 1.453 
2.432 5525.710 0.000 0.000 0.000 1.459 
2.442 5561.552 0.000 0.000 0.000 1.465 
2.452 5611.275 0.000 0.000 0.000 1.471 
2.462 5639.070 0.000 0.000 0.000 1.477 
2.472 5650.508 0.000 0.000 0.000 1.483 
2.482 5687.107 0.000 0.000 0.000 1.489 
2.492 5653.183 0.000 0.000 0.000 1.495 
2.503 5673.399 0.000 0.000 0.000 1.502 
2.513 5752.208 0.000 0.000 0.000 1.508 
2.523 5770.474 0.000 0.000 0.000 1.514 
2.533 5682.701 0.000 0.000 0.000 1.520 
2.543 5838.641 0.000 0.000 0.000 1.526 
2.553 5812.978 0.000 0.000 0.000 1.532 
2.563 5863.357 0.000 0.000 0.000 1.538 
2.573 5911.743 0.000 0.000 0.000 1.544 
2.583 5804.306 0.000 0.000 0.000 1.550 
2.593 5944.574 0.000 0.000 0.000 1.556 
2.603 5924.901 0.000 0.000 0.000 1.562 
2.613 5937.149 0.000 0.000 0.000 1.568 
2.623 5938.161 0.000 0.000 0.000 1.574 
2.633 6020.922 0.000 0.000 0.000 1.580 
2.643 6022.048 0.000 0.000 0.000 1.586 
2.653 6019.975 0.000 0.000 0.000 1.592 
2.663 6068.722 0.000 0.000 0.000 1.598 
2.673 6101.404 0.000 0.000 0.000 1.604 
2.683 6066.595 0.000 0.000 0.000 1.610 
2.693 6113.256 0.000 0.000 0.000 1.616 
2.703 6171.803 0.000 0.000 0.000 1.622 
2.713 6169.518 0.000 0.000 0.000 1.628 
2.723 6149.618 0.000 0.000 0.000 1.634 
2.733 6189.624 0.000 0.000 0.000 1.640 
2.743 6196.080 0.000 0.000 0.000 1.646 
2.753 6242.893 0.000 0.000 0.000 1.652 
2.763 6269.193 0.000 0.000 0.000 1.658 
2.773 6317.493 0.000 0.000 0.000 1.664 
2.783 6343.158 0.000 0.000 0.000 1.670 
2.793 6328.848 0.000 0.000 0.000 1.676 
2.803 6412.978 0.000 0.000 0.000 1.682 
2.813 6399.879 0.000 0.000 0.000 1.688 
2.823 6408.187 0.000 0.000 0.000 1.694 
2.833 6492.256 0.000 0.000 0.000 1.700 
2.843 6466.726 0.000 0.000 0.000 1.706 
2.853 6444.423 0.000 0.000 0.000 1.712 
2.863 6503.462 0.000 0.000 0.000 1.718 
2.873 6471.615 0.000 0.000 0.000 1.724 
2.883 6545.836 0.000 0.000 0.000 1.730 
2.893 6534.658 0.000 0.000 0.000 1.736 
2.903 6566.013 0.000 0.000 0.000 1.742 
2.913 6612.073 0.000 0.000 0.000 1.748 
2.923 6678.776 0.000 0.000 0.000 1.754 
2.933 6629.770 0.000 0.000 0.000 1.760 
2.943 6707.292 0.000 0.000 0.000 1.766 
2.953 6706.657 0.000 0.000 0.000 1.772 
2.963 6721.562 0.000 0.000 0.000 1.778 
2.973 6726.140 0.000 0.000 0.000 1.784 
2.983 6856.104 0.000 0.000 0.000 1.790 
2.993 6741.667 0.000 0.000 0.000 1.796 
3.003 6805.641 0.000 0.000 0.000 1.802 
3.013 6803.606 0.000 0.000 0.000 1.808 
3.023 6759.923 0.000 0.000 0.000 1.814 
3.033 6828.681 0.000 0.000 0.000 1.820 
3.043 6714.153 0.000 0.000 0.000 1.826 
3.053 6805.850 0.000 0.000 0.000 1.832 
3.063 6791.498 0.000 0.000 0.000 1.838 
3.073 6748.726 0.000 0.000 0.000 1.844 
3.083 6719.878 0.000 0.000 0.000 1.850 
3.093 6823.487 0.000 0.000 0.000 1.856 
3.103 6787.027 0.000 0.000 0.000 1.862 
3.113 6733.394 0.000 0.000 0.000 1.868 
3.123 6687.704 0.000 0.000 0.000 1.874 
3.133 6753.930 0.000 0.000 0.000 1.880 
3.143 6744.786 0.000 0.000 0.000 1.886 
3.153 6766.719 0.000 0.000 0.000 1.892 
3.163 6690.518 0.000 0.000 0.000 1.898 
3.173 6687.121 0.000 0.000 0.000 1.904 
3.183 6686.144 0.000 0.000 0.000 1.910 
3.193 6640.735 0.000 0.000 0.000 1.916 
3.203 6722.888 0.000 0.000 0.000 1.922 
3.213 6652.734 0.000 0.000 0.000 1.928 
3.223 6654.245 0.000 0.000 0.000 1.934 
3.233 6666.054 0.000 0.000 0.000 1.940 
3.243 6642.226 0.000 0.000 0.000 1.946 
3.253 6594.131 0.000 0.000 0.000 1.952 
3.263 6667.262 0.000 0.000 0.000 1.958 
3.273 6683.608 0.000 0.000 0.000 1.964 
3.283 6610.187 0.000 0.000 0.000 1.970 
3.293 6658.610 0.000 0.000 0.000 1.976 
3.303 6619.135 0.000 0.000 0.000 1.982 
3.313 6670.014 0.000 0.000 0.000 1.988 
3.323 6639.188 0.000 0.000 0.000 1.994 
3.333 6653.763 0.000 0.000 0.000 2.000 
3.343 6627.628 0.000 0.000 0.000 2.006 
3.353 6675.950 0.000 0.000 0.000 2.012 
3.363 6661.318 0.000 0.000 0.000 2.018 
3.373 6601.149 0.000 0.000 0.000 2.024 
3.383 6696.494 0.000 0.000 0.000 2.030 
3.393 6729.531 0.000 0.000 0.000 2.036 
3.403 6616.611 0.000 0.000 0.000 2.042 
3.413 6651.570 0.000 0.000 0.000 2.048 
3.423 6651.590 0.000 0.000 0.000 2.054 
3.433 6619.429 0.000 0.000 0.000 2.060 
3.443 6690.998 0.000 0.000 0.000 2.066 
3.453 6630.225 0.000 0.000 0.000 2.072 
3.463 6698.756 0.000 0.000 0.000 2.078 
3.473 6669.780 0.000 0.000 0.000 2.084 
3.483 6650.233 0.000 0.000 0.000 2.090 
3.493 6648.154 0.000 0.000 0.000 2.096 
3.504 6718.025 0.000 0.000 0.000 2.102 
3.514 6614.018 0.000 0.000 0.000 2.108 
3.524 6670.753 0.000 0.000 0.000 2.114 
3.534 6658.001 0.000 0.000 0.000 2.120 
3.544 6702.965 0.000 0.000 0.000 2.126 
3.554 6696.205 0.000 0.000 0.000 2.132 
3.564 6625.641 0.000 0.000 0.000 2.138 
3.574 6701.847 0.000 0.000 0.000 2.144 
3.584 6654.695 0.000 0.000 0.000 2.150 
3.594 6661.524 0.000 0.000 0.000 2.156 
3.604 6711.972 0.000 0.000 0.000 2.162 
3.614 6677.087 0.000 0.000 0.000 2.168 
3.624 6620.644 0.000 0.000 0.000 2.174 
3.634 6626.076 0.000 0.000 0.000 2.180 
3.644 6674.571 0.000 0.000 0.000 2.186 
3.654 6694.537 0.000 0.000 0.000 2.192 
3.664 6630.960 0.000 0.000 0.000 2.198 
3.674 6633.991 0.000 0.000 0.000 2.204 
3.684 6722.150 0.000 0.000 0.000 2.210 
3.694 6651.629 0.000 0.000 0.000 2.216 
3.704 6687.889 0.000 0.000 0.000 2.222 
3.714 6672.238 0.000 0.000 0.000 2.228 
3.724 6669.519 0.000 0.000 0.000 2.234 
3.734 6744.831 0.000 0.000 0.000 2.240 
3.744 6662.102 0.000 0.000 0.000 2.246 
3.754 6720.939 0.000 0.000 0.000 2.252 
3.764 6696.796 0.000 0.000 0.000 2.258 
3.774 6666.480 0.000 0.000 0.000 2.264 
3.784 6691.479 0.000 0.000 0.000 2.270 
3.794 6715.528 0.000 0.000 0.000 2.276 
3.804 6675.019 0.000 0.000 0.000 2.282 
3.814 6706.779 0.000 0.000 0.000 2.288 
3.824 6688.794 0.000 0.000 0.000 2.294 
3.834 6666.220 0.000 0.000 0.000 2.300 
3.844 6680.642 0.000 0.000 0.000 2.306 
3.854 6707.782 0.000 0.000 0.000 2.312 
3.864 6681.860 0.000 0.000 0.000 2.318 
3.874 6721.950 0.000 0.000 0.000 2.324 
3.884 6660.971 0.000 0.000 0.000 2.330 
3.894 6718.339 0.000 0.000 0.000 2.336 
3.904 6699.503 0.000 0.000 0.000 2.342 
3.914 6729.996 0.000 0.000 0.000 2.348 
3.924 6650.052 0.000 0.000 0.000 2.354 
3.934 6717.162 0.000 0.000 0.000 2.360 
3.944 6680.984 0.000 0.000 0.000 2.366 
3.954 6723.532 0.000 0.000 0.000 2.372 
3.964 6675.091 0.000 0.000 0.000 2.378 
3.974 6758.365 0.000 0.000 0.000 2.384 
3.984 6752.515 0.000 0.000 0.000 2.390 
3.994 6672.166 0.000 0.000 0.000 2.396 
4.004 6689.976 0.000 0.000 0.000 2.402 
4.014 6741.076 0.000 0.000 0.000 2.408 
4.024 6707.703 0.000 0.000 0.000 2.414 
4.034 6721.329 0.000 0.000 0.000 2.420 
4.044 6677.400 0.000 0.000 0.000 2.426 
4.054 6658.924 0.000 0.000 0.000 2.432 
4.064 6730.469 0.000 0.000 0.000 2.438 
4.074 6689.083 0.000 0.000 0.000 2.444 
4.084 6739.040 0.000 0.000 0.000 2.450 
4.094 6715.070 0.000 0.000 0.000 2.456 
4.104 6705.164 0.000 0.000 0.000 2.462 
4.114 6737.545 0.000 0.000 0.000 2.468 
4.124 6692.616 0.000 0.000 0.000 2.474 
4.134 6658.109 0.000 0.000 0.000 2.480 
4.144 6676.237 0.000 0.000 0.000 2.486 
4.154 6722.818 0.000 0.000 0.000 2.492 
4.164 6688.238 0.000 0.000 0.000 2.498 
4.174 6680.255 0.000 0.000 0.000 2.505 
4.184 6735.545 0.000 0.000 0.000 2.511 
4.194 6643.690 0.000 0.000 0.000 2.517 
4.204 6735.077 0.000 0.000 0.000 2.523 
4.214 6754.518 0.000 0.000 0.000 2.529 
4.224 6706.326 0.000 0.000 0.000 2.535 
4.234 6745.610 0.000 0.000 0.000 2.541 
4.244 6731.917 0.000 0.000 0.000 2.547 
4.254 6704.056 0.000 0.000 0.000 2.553 
4.264 6726.398 0.000 0.000 0.000 2.559 
4.274 6664.572 0.000 0.000 0.000 2.565 
4.284 6717.994 0.000 0.000 0.000 2.571 
4.294 6683.646 0.000 0.000 0.000 2.577 
4.304 6732.026 0.000 0.000 0.000 2.583 
4.314 6705.836 0.000 0.000 0.000 2.589 
4.324 6708.232 0.000 0.000 0.000 2.595 
4.334 6705.077 0.000 0.000 0.000 2.601 
4.344 6676.865 0.000 0.000 0.000 2.607 
4.354 6703.735 0.000 0.000 0.000 2.613 
4.364 6735.555 0.000 0.000 0.000 2.619 
4.374 6669.308 0.000 0.000 0.000 2.625 
4.384 6698.066 0.000 0.000 0.000 2.631 
4.394 6735.179 0.000 0.000 0.000 2.637 
4.404 6662.109 0.000 0.000 0.000 2.643 
4.414 6699.885 0.000 0.000 0.000 2.649 
4.424 6742.405 0.000 0.000 0.000 2.655 
4.434 6781.263 0.000 0.000 0.000 2.661 
4.444 6713.943 0.000 0.000 0.000 2.667 
4.454 6693.445 0.000 0.000 0.000 2.673 
4.464 6753.906 0.000 0.000 0.000 2.679 
4.474 6713.135 0.000 0.000 0.000 2.685 
4.484 6767.525 0.000 0.000 0.000 2.691 
4.494 6733.333 0.000 0.000 0.000 2.697 
4.505 6705.799 0.000 0.000 0.000 2.703 
4.515 6661.014 0.000 0.000 0.000 2.709 
4.525 6661.890 0.000 0.000 0.000 2.715 
4.535 6682.310 0.000 0.000 0.000 2.721 
4.545 6779.301 0.000 0.000 0.000 2.727 
4.555 6750.294 0.000 0.000 0.000 2.733 
4.565 6724.986 0.000 0.000 0.000 2.739 
4.575 6694.032 0.000 0.000 0.000 2.745 
4.585 6732.503 0.000 0.000 0.000 2.751 
4.595 6759.312 0.000 0.000 0.000 2.757 
4.605 6730.313 0.000 0.000 0.000 2.763 
4.615 6722.316 0.000 0.000 0.000 2.769 
4.625 6699.443 0.000 0.000 0.000 2.775 
4.635 6703.412 0.000 0.000 0.000 2.781 
4.645 6711.705 0.000 0.000 0.000 2.787 
4.655 6661.323 0.000 0.000 0.000 2.793 
4.665 6732.332 0.000 0.000 0.000 2.799 
4.675 6777.358 0.000 0.000 0.000 2.805 
4.685 6704.470 0.000 0.000 0.000 2.811 
4.695 6705.061 0.000 0.000 0.000 2.817 
4.705 6704.092 0.000 0.000 0.000 2.823 
4.715 6724.543 0.000 0.000 0.000 2.829 
4.725 6684.423 0.000 0.000 0.000 2.835 
4.735 6736.069 0.000 0.000 0.000 2.841 
4.745 6785.479 0.000 0.000 0.000 2.847 
4.755 6745.679 0.000 0.000 0.000 2.853 
4.765 6800.556 0.000 0.000 0.000 2.859 
4.775 6796.482 0.000 0.000 0.000 2.865 
4.785 6737.107 0.000 0.000 0.000 2.871 
4.795 6690.374 0.000 0.000 0.000 2.877 
4.805 6727.933 0.000 0.000 0.000 2.883 
4.815 6701.334 0.000 0.000 0.000 2.889 
4.825 6709.972 0.000 0.000 0.000 2.895 
4.835 6716.143 0.000 0.000 0.000 2.901 
4.845 6798.041 0.000 0.000 0.000 2.907 
4.855 6683.637 0.000 0.000 0.000 2.913 
4.865 6707.454 0.000 0.000 0.000 2.919 
4.875 6751.627 0.000 0.000 0.000 2.925 
4.885 6758.896 0.000 0.000 0.000 2.931 
4.895 6680.764 0.000 0.000 0.000 2.937 
4.905 6726.729 0.000 0.000 0.000 2.943 
4.915 6734.578 0.000 0.000 0.000 2.949 
4.925 6730.948 0.000 0.000 0.000 2.955 
4.935 6727.807 0.000 0.000 0.000 2.961 
4.945 6711.153 0.000 0.000 0.000 2.967 
4.955 6714.375 0.000 0.000 0.000 2.973 
4.965 6734.270 0.000 0.000 0.000 2.979 
4.975 6754.077 0.000 0.000 0.000 2.985 
4.985 6726.784 0.000 0.000 0.000 2.991 
4.995 6720.380 0.000 0.000 0.000 2.997 
5.005 6721.617 0.000 0.000 0.000 3.003 
5.015 6727.972 0.000 0.000 0.000 3.009 
5.025 6748.469 0.000 0.000 0.000 3.015 
5.035 6703.905 0.000 0.000 0.000 3.021 
5.045 6736.430 0.000 0.000 0.000 3.027 
5.055 6705.978 0.000 0.000 0.000 3.033 
5.065 6774.040 0.000 0.000 0.000 3.039 
5.075 6735.693 0.000 0.000 0.000 3.045 
5.085 6698.284 0.000 0.000 0.000 3.051 
5.095 6702.476 0.000 0.000 0.000 3.057 
5.105 6656.776 0.000 0.000 0.000 3.063 
5.115 6724.661 0.000 0.000 0.000 3.069 
5.125 6742.605 0.000 0.000 0.000 3.075 
5.135 6770.623 0.000 0.000 0.000 3.081 
5.145 6717.981 0.000 0.000 0.000 3.087 
5.155 6734.818 0.000 0.000 0.000 3.093 
5.165 6743.912 0.000 0.000 0.000 3.099 
5.175 6715.428 0.000 0.000 0.000 3.105 
5.185 6706.612 0.000 0.000 0.000 3.111 
5.195 6691.297 0.000 0.000 0.000 3.117 
5.205 6670.591 0.000 0.000 0.000 3.123 
5.215 6681.994 0.000 0.000 0.000 3.129 
5.225 6759.521 0.000 0.000 0.000 3.135 
5.235 6701.853 0.000 0.000 0.000 3.141 
5.245 6688.821 0.000 0.000 0.000 3.147 
5.255 6717.571 0.000 0.000 0.000 3.153 
5.265 6716.931 0.000 0.000 0.000 3.159 
5.275 6688.696 0.000 0.000 0.000 3.165 
5.285 6732.306 0.000 0.000 0.000 3.171 
5.295 6754.761 0.000 0.000 0.000 3.177 
5.305 6700.785 0.000 0.000 0.000 3.183 
5.315 6734.870 0.000 0.000 0.000 3.189 
5.325 6774.698 0.000 0.000 0.000 3.195 
5.335 6735.022 0.000 0.000 0.000 3.201 
5.345 6689.661 0.000 0.000 0.000 3.207 
5.355 6677.672 0.000 0.000 0.000 3.213 
5.365 6753.837 0.000 0.000 0.000 3.219 
5.375 6725.446 0.000 0.000 0.000 3.225 
5.385 6736.854 0.000 0.000 0.000 3.231 
5.395 6687.565 0.000 0.000 0.000 3.237 
5.405 6760.667 0.000 0.000 0.000 3.243 
5.415 6702.494 0.000 0.000 0.000 3.249 
5.425 6688.226 0.000 0.000 0.000 3.255 
5.435 6752.112 0.000 0.000 0.000 3.261 
5.445 6723.715 0.000 0.000 0.000 3.267 
5.455 6716.626 0.000 0.000 0.000 3.273 
5.465 6700.606 0.000 0.000 0.000 3.279 
5.475 6678.180 0.000 0.000 0.000 3.285 
5.485 6729.977 0.000 0.000 0.000 3.291 
5.495 6700.690 0.000 0.000 0.000 3.297 
5.506 6801.019 0.000 0.000 0.000 3.303 
5.516 6697.185 0.000 0.000 0.000 3.309 
5.526 6700.969 0.000 0.000 0.000 3.315 
5.536 6654.951 0.000 0.000 0.000 3.321 
5.546 6653.544 0.000 0.000 0.000 3.327 
5.556 6708.187 0.000 0.000 0.000 3.333 
5.566 6699.258 0.000 0.000 0.000 3.339 
5.576 6706.973 0.000 0.000 0.000 3.345 
5.586 6684.444 0.000 0.000 0.000 3.351 
5.596 6691.438 0.000 0.000 0.000 3.357 
5.606 6727.014 0.000 0.000 0.000 3.363 
5.616 6753.362 0.000 0.000 0.000 3.369 
5.626 6732.881 0.000 0.000 0.000 3.375 
5.636 6726.972 0.000 0.000 0.000 3.381 
5.646 6722.769 0.000 0.000 0.000 3.387 
5.656 6705.397 0.000 0.000 0.000 3.393 
5.666 6707.772 0.000 0.000 0.000 3.399 
5.676 6739.871 0.000 0.000 0.000 3.405 
5.686 6665.162 0.000 0.000 0.000 3.411 
5.696 6742.048 0.000 0.000 0.000 3.417 
5.706 6682.354 0.000 0.000 0.000 3.423 
5.716 6708.280 0.000 0.000 0.000 3.429 
5.726 6696.966 0.000 0.000 0.000 3.435 
5.736 6662.103 0.000 0.000 0.000 3.441 
5.746 6736.653 0.000 0.000 0.000 3.447 
5.756 6712.661 0.000 0.000 0.000 3.453 
5.766 6731.121 0.000 0.000 0.000 3.459 
5.776 6760.748 0.000 0.000 0.000 3.465 
5.786 6690.279 0.000 0.000 0.000 3.471 
5.796 6716.174 0.000 0.000 0.000 3.477 
5.806 6754.145 0.000 0.000 0.000 3.483 
5.816 6739.357 0.000 0.000 0.000 3.489 
5.826 6679.261 0.000 0.000 0.000 3.495 
5.836 6731.804 0.000 0.000 0.000 3.502 
5.846 6698.581 0.000 0.000 0.000 3.508 
5.856 6677.648 0.000 0.000 0.000 3.514 
5.866 6707.128 0.000 0.000 0.000 3.520 
5.876 6760.704 0.000 0.000 0.000 3.526 
5.886 6699.674 0.000 0.000 0.000 3.532 
5.896 6746.956 0.000 0.000 0.000 3.538 
5.906 6667.855 0.000 0.000 0.000 3.544 
5.916 6726.516 0.000 0.000 0.000 3.550 
5.926 6739.118 0.000 0.000 0.000 3.556 
5.936 6688.409 0.000 0.000 0.000 3.562 
5.946 6640.513 0.000 0.000 0.000 3.568 
5.956 6633.490 0.000 0.000 0.000 3.574 
5.966 6715.718 0.000 0.000 0.000 3.580 
5.976 6717.316 0.000 0.000 0.000 3.586 
5.986 6673.975 0.000 0.000 0.000 3.592 
5.996 6623.510 0.000 0.000 0.000 3.598 
6.006 6703.354 0.000 0.000 0.000 3.604 
6.016 6747.117 0.000 0.000 0.000 3.610 
6.026 6703.683 0.000 0.000 0.000 3.616 
6.036 6663.821 0.000 0.000 0.000 3.622 
6.046 6669.931 0.000 0.000 0.000 3.628 
6.056 6697.947 0.000 0.000 0.000 3.634 
6.066 6671.383 0.000 0.000 0.000 3.640 
6.076 6704.441 0.000 0.000 0.000 3.646 
6.086 6635.278 0.000 0.000 0.000 3.652 
6.096 6656.674 0.000 0.000 0.000 3.658 
6.106 6713.618 0.000 0.000 0.000 3.664 
6.116 6728.535 0.000 0.000 0.000 3.670 
6.126 6663.737 0.000 0.000 0.000 3.676 
6.136 6650.198 0.000 0.000 0.000 3.682 
6.146 6637.434 0.000 0.000 0.000 3.688 
6.156 6729.055 0.000 0.000 0.000 3.694 
6.166 6695.949 0.000 0.000 0.000 3.700 
6.176 6687.958 0.000 0.000 0.000 3.706 
6.186 6717.638 0.000 0.000 0.000 3.712 
6.196 6688.459 0.000 0.000 0.000 3.718 
6.206 6756.335 0.000 0.000 0.000 3.724 
6.216 6697.561 0.000 0.000 0.000 3.730 
6.226 6704.827 0.000 0.000 0.000 3.736 
6.236 6668.359 0.000 0.000 0.000 3.742 
6.246 6717.202 0.000 0.000 0.000 3.748 
6.256 6738.438 0.000 0.000 0.000 3.754 
6.266 6680.938 0.000 0.000 0.000 3.760 
6.276 6673.928 0.000 0.000 0.000 3.766 
6.286 6630.768 0.000 0.000 0.000 3.772 
6.296 6618.765 0.000 0.000 0.000 3.778 
6.306 6669.988 0.000 0.000 0.000 3.784 
6.316 6694.892 0.000 0.000 0.000 3.790 
6.326 6699.144 0.000 0.000 0.000 3.796 
6.336 6664.651 0.000 0.000 0.000 3.802 
6.346 6656.759 0.000 0.000 0.000 3.808 
6.356 6703.847 0.000 0.000 0.000 3.814 
6.366 6672.762 0.000 0.000 0.000 3.820 
6.376 6663.338 0.000 0.000 0.000 3.826 
6.386 6646.799 0.000 0.000 0.000 3.832 
6.396 6665.340 0.000 0.000 0.000 3.838 
6.406 6638.172 0.000 0.000 0.000 3.844 
6.416 6666.390 0.000 0.000 0.000 3.850 
6.426 6634.564 0.000 0.000 0.000 3.856 
6.436 6680.502 0.000 0.000 0.000 3.862 
6.446 6667.493 0.000 0.000 0.000 3.868 
6.456 6610.353 0.000 0.000 0.000 3.874 
6.466 6676.487 0.000 0.000 0.000 3.880 
6.476 6665.120 0.000 0.000 0.000 3.886 
6.486 6608.244 0.000 0.000 0.000 3.892 
6.496 6704.211 0.000 0.000 0.000 3.898 
6.507 6572.116 0.000 0.000 0.000 3.904 
6.517 6603.980 0.000 0.000 0.000 3.910 
6.527 6608.012 0.000 0.000 0.000 3.916 
6.537 6676.530 0.000 0.000 0.000 3.922 
6.547 6697.475 0.000 0.000 0.000 3.928 
6.557 6678.579 0.000 0.000 0.000 3.934 
6.567 6638.104 0.000 0.000 0.000 3.940 
6.577 6593.266 0.000 0.000 0.000 3.946 
6.587 6631.130 0.000 0.000 0.000 3.952 
6.597 6710.180 0.000 0.000 0.000 3.958 
6.607 6642.074 0.000 0.000 0.000 3.964 
6.617 6615.722 0.000 0.000 0.000 3.970 
6.627 6681.098 0.000 0.000 0.000 3.976 
6.637 6638.876 0.000 0.000 0.000 3.982 
6.647 6572.146 0.000 0.000 0.000 3.988 
6.657 6608.330 0.000 0.000 0.000 3.994 
6.667 6636.286 0.000 0.000 0.000 4.000 
6.677 6617.656 0.000 0.000 0.000 4.006 
6.687 6657.360 0.000 0.000 0.000 4.012 
6.697 6631.140 0.000 0.000 0.000 4.018 
6.707 6573.814 0.000 0.000 0.000 4.024 
6.717 6625.654 0.000 0.000 0.000 4.030 
6.727 6646.509 0.000 0.000 0.000 4.036 
6.737 6659.049 0.000 0.000 0.000 4.042 
6.747 6647.990 0.000 0.000 0.000 4.048 
6.757 6603.722 0.000 0.000 0.000 4.054 
6.767 6613.259 0.000 0.000 0.000 4.060 
6.777 6645.667 0.000 0.000 0.000 4.066 
6.787 6610.968 0.000 0.000 0.000 4.072 
6.797 6611.329 0.000 0.000 0.000 4.078 
6.807 6578.129 0.000 0.000 0.000 4.084 
6.817 6617.537 0.000 0.000 0.000 4.090 
6.827 6709.513 0.000 0.000 0.000 4.096 
6.837 6579.766 0.000 0.000 0.000 4.102 
6.847 6586.355 0.000 0.000 0.000 4.108 
6.857 6669.744 0.000 0.000 0.000 4.114 
6.867 6601.122 0.000 0.000 0.000 4.120 
6.877 6593.824 0.000 0.000 0.000 4.126 
6.887 6663.317 0.000 0.000 0.000 4.132 
6.897 6592.357 0.000 0.000 0.000 4.138 
6.907 6649.318 0.000 0.000 0.000 4.144 
6.917 6615.993 0.000 0.000 0.000 4.150 
6.927 6635.792 0.000 0.000 0.000 4.156 
6.937 6600.156 0.000 0.000 0.000 4.162 
6.947 6639.211 0.000 0.000 0.000 4.168 
6.957 6609.158 0.000 0.000 0.000 4.174 
6.967 6638.467 0.000 0.000 0.000 4.180 
6.977 6635.631 0.000 0.000 0.000 4.186 
6.987 6631.160 0.000 0.000 0.000 4.192 
6.997 6607.901 0.000 0.000 0.000 4.198 
7.007 6582.532 0.000 0.000 0.000 4.204 
7.017 6616.430 0.000 0.000 0.000 4.210 
7.027 6633.140 0.000 0.000 0.000 4.216 
7.037 6594.157 0.000 0.000 0.000 4.222 
7.047 6586.079 0.000 0.000 0.000 4.228 
7.057 6592.831 0.000 0.000 0.000 4.234 
7.067 6554.409 0.000 0.000 0.000 4.240 
7.077 6512.768 0.000 0.000 0.000 4.246 
7.087 6584.482 0.000 0.000 0.000 4.252 
7.097 6642.254 0.000 0.000 0.000 4.258 
7.107 6479.905 0.000 0.000 0.000 4.264 
7.117 6604.176 0.000 0.000 0.000 4.270 
7.127 6669.338 0.000 0.000 0.000 4.276 
7.137 6590.650 0.000 0.000 0.000 4.282 
7.147 6612.571 0.000 0.000 0.000 4.288 
7.157 6568.130 0.000 0.000 0.000 4.294 
7.167 6540.283 0.000 0.000 0.000 4.300 
7.177 6585.414 0.000 0.000 0.000 4.306 
7.187 6557.389 0.000 0.000 0.000 4.312 
7.197 6504.016 0.000 0.000 0.000 4.318 
7.207 6622.516 0.000 0.000 0.000 4.324 
7.217 6564.014 0.000 0.000 0.000 4.330 
7.227 6578.817 0.000 0.000 0.000 4.336 
7.237 6548.143 0.000 0.000 0.000 4.342 
7.247 6631.643 0.000 0.000 0.000 4.348 
7.257 6570.175 0.000 0.000 0.000 4.354 
7.267 6529.810 0.000 0.000 0.000 4.360 
7.277 6579.139 0.000 0.000 0.000 4.366 
7.287 6557.918 0.000 0.000 0.000 4.372 
7.297 6550.627 0.000 0.000 0.000 4.378 
7.307 6583.526 0.000 0.000 0.000 4.384 
7.317 6563.696 0.000 0.000 0.000 4.390 
7.327 6578.379 0.000 0.000 0.000 4.396 
7.337 6533.031 0.000 0.000 0.000 4.402 
7.347 6503.011 0.000 0.000 0.000 4.408 
7.357 6548.756 0.000 0.000 0.000 4.414 
7.367 6580.228 0.000 0.000 0.000 4.420 
7.377 6541.805 0.000 0.000 0.000 4.426 
7.387 6532.012 0.000 0.000 0.000 4.432 
7.397 6501.012 0.000 0.000 0.000 4.438 
7.407 6470.725 0.000 0.000 0.000 4.444 
7.417 6567.204 0.000 0.000 0.000 4.450 
7.427 6540.356 0.000 0.000 0.000 4.456 
7.437 6540.462 0.000 0.000 0.000 4.462 
7.447 6508.328 0.000 0.000 0.000 4.468 
7.457 6576.919 0.000 0.000 0.000 4.474 
7.467 6485.308 0.000 0.000 0.000 4.480 
7.477 6530.543 0.000 0.000 0.000 4.486 
7.487 6522.809 0.000 0.000 0.000 4.492 
7.497 6536.043 0.000 0.000 0.000 4.498 
7.508 6555.093 0.000 0.000 0.000 4.505 
7.518 6510.149 0.000 0.000 0.000 4.511 
7.528 6533.045 0.000 0.000 0.000 4.517 
7.538 6556.896 0.000 0.000 0.000 4.523 
7.548 6557.881 0.000 0.000 0.000 4.529 
7.558 6455.049 0.000 0.000 0.000 4.535 
7.568 6497.739 0.000 0.000 0.000 4.541 
7.578 6501.256 0.000 0.000 0.000 4.547 
7.588 6499.735 0.000 0.000 0.000 4.553 
7.598 6497.034 0.000 0.000 0.000 4.559 
7.608 6529.707 0.000 0.000 0.000 4.565 
7.618 6511.501 0.000 0.000 0.000 4.571 
7.628 6437.393 0.000 0.000 0.000 4.577 
7.638 6520.876 0.000 0.000 0.000 4.583 
7.648 6530.613 0.000 0.000 0.000 4.589 
7.658 6557.241 0.000 0.000 0.000 4.595 
7.668 6509.158 0.000 0.000 0.000 4.601 
7.678 6550.239 0.000 0.000 0.000 4.607 
7.688 6485.684 0.000 0.000 0.000 4.613 
7.698 6515.478 0.000 0.000 0.000 4.619 
7.708 6485.213 0.000 0.000 0.000 4.625 
7.718 6509.382 0.000 0.000 0.000 4.631 
7.728 6526.572 0.000 0.000 0.000 4.637 
7.738 6440.616 0.000 0.000 0.000 4.643 
7.748 6526.709 0.000 0.000 0.000 4.649 
7.758 6506.469 0.000 0.000 0.000 4.655 
7.768 6522.008 0.000 0.000 0.000 4.661 
7.778 6555.133 0.000 0.000 0.000 4.667 
7.788 6472.959 0.000 0.000 0.000 4.673 
7.798 6482.461 0.000 0.000 0.000 4.679 
7.808 6535.596 0.000 0.000 0.000 4.685 
7.818 6497.444 0.000 0.000 0.000 4.691 
7.828 6473.103 0.000 0.000 0.000 4.697 
7.838 6453.276 0.000 0.000 0.000 4.703 
7.848 6456.167 0.000 0.000 0.000 4.709 
7.858 6541.728 0.000 0.000 0.000 4.715 
7.868 6463.104 0.000 0.000 0.000 4.721 
7.878 6538.064 0.000 0.000 0.000 4.727 
7.888 6465.850 0.000 0.000 0.000 4.733 
7.898 6477.106 0.000 0.000 0.000 4.739 
7.908 6474.197 0.000 0.000 0.000 4.745 
7.918 6419.732 0.000 0.000 0.000 4.751 
7.928 6450.743 0.000 0.000 0.000 4.757 
7.938 6430.512 0.000 0.000 0.000 4.763 
7.948 6511.039 0.000 0.000 0.000 4.769 
7.958 6476.853 0.000 0.000 0.000 4.775 
7.968 6429.150 0.000 0.000 0.000 4.781 
7.978 6426.369 0.000 0.000 0.000 4.787 
7.988 6470.544 0.000 0.000 0.000 4.793 
7.998 6426.194 0.000 0.000 0.000 4.799 
8.008 6429.184 0.000 0.000 0.000 4.805 
8.018 6359.623 0.000 0.000 0.000 4.811 
8.028 6375.722 0.000 0.000 0.000 4.817 
8.038 6385.020 0.000 0.000 0.000 4.823 
8.048 6424.231 0.000 0.000 0.000 4.829 
8.058 6450.914 0.000 0.000 0.000 4.835 
8.068 6478.512 0.000 0.000 0.000 4.841 
8.078 6484.177 0.000 0.000 0.000 4.847 
8.088 6451.631 0.000 0.000 0.000 4.853 
8.098 6413.223 0.000 0.000 0.000 4.859 
8.108 6443.071 0.000 0.000 0.000 4.865 
8.118 6483.858 0.000 0.000 0.000 4.871 
8.128 6375.995 0.000 0.000 0.000 4.877 
8.138 6396.066 0.000 0.000 0.000 4.883 
8.148 6401.087 0.000 0.000 0.000 4.889 
8.158 6433.673 0.000 0.000 0.000 4.895 
8.168 6414.481 0.000 0.000 0.000 4.901 
8.178 6461.498 0.000 0.000 0.000 4.907 
8.188 6436.379 0.000 0.000 0.000 4.913 
8.198 6373.008 0.000 0.000 0.000 4.919 
8.208 6397.295 0.000 0.000 0.000 4.925 
8.218 6368.327 0.000 0.000 0.000 4.931 
8.228 6460.399 0.000 0.000 0.000 4.937 
8.238 6365.341 0.000 0.000 0.000 4.943 
8.248 6421.641 0.000 0.000 0.000 4.949 
8.258 6387.729 0.000 0.000 0.000 4.955 
8.268 6388.390 0.000 0.000 0.000 4.961 
8.278 6436.676 0.000 0.000 0.000 4.967 
8.288 6345.579 0.000 0.000 0.000 4.973 
8.298 6440.345 0.000 0.000 0.000 4.979 
8.308 6457.148 0.000 0.000 0.000 4.985 
8.318 6346.069 0.000 0.000 0.000 4.991 
8.328 6357.073 0.000 0.000 0.000 4.997 
8.338 6392.140 0.000 0.000 0.000 5.003 
8.348 6399.489 0.000 0.000 0.000 5.009 
8.358 6309.080 0.000 0.000 0.000 5.015 
8.368 6393.713 0.000 0.000 0.000 5.021 
8.378 6315.579 0.000 0.000 0.000 5.027 
8.388 6430.693 0.000 0.000 0.000 5.033 
8.398 6371.968 0.000 0.000 0.000 5.039 
8.408 6332.223 0.000 0.000 0.000 5.045 
8.418 6410.458 0.000 0.000 0.000 5.051 
8.428 6325.123 0.000 0.000 0.000 5.057 
8.438 6392.483 0.000 0.000 0.000 5.063 
8.448 6368.728 0.000 0.000 0.000 5.069 
8.458 6363.721 0.000 0.000 0.000 5.075 
8.468 6360.522 0.000 0.000 0.000 5.081 
8.478 6288.911 0.000 0.000 0.000 5.087 
8.488 6304.754 0.000 0.000 0.000 5.093 
8.498 6328.403 0.000 0.000 0.000 5.099 
8.509 6344.541 0.000 0.000 0.000 5.105 
8.519 6352.637 0.000 0.000 0.000 5.111 
8.529 6357.582 0.000 0.000 0.000 5.117 
8.539 6377.031 0.000 0.000 0.000 5.123 
8.549 6370.514 0.000 0.000 0.000 5.129 
8.559 6376.194 0.000 0.000 0.000 5.135 
8.569 6310.960 0.000 0.000 0.000 5.141 
8.579 6379.951 0.000 0.000 0.000 5.147 
8.589 6289.414 0.000 0.000 0.000 5.153 
8.599 6323.702 0.000 0.000 0.000 5.159 
8.609 6393.072 0.000 0.000 0.000 5.165 
8.619 6323.744 0.000 0.000 0.000 5.171 
8.629 6308.238 0.000 0.000 0.000 5.177 
8.639 6280.884 0.000 0.000 0.000 5.183 
8.649 6358.052 0.000 0.000 0.000 5.189 
8.659 6319.177 0.000 0.000 0.000 5.195 
8.669 6294.888 0.000 0.000 0.000 5.201 
8.679 6341.225 0.000 0.000 0.000 5.207 
8.689 6285.912 0.000 0.000 0.000 5.213 
8.699 6385.827 0.000 0.000 0.000 5.219 
8.709 6339.168 0.000 0.000 0.000 5.225 
8.719 6334.900 0.000 0.000 0.000 5.231 
8.729 6332.070 0.000 0.000 0.000 5.237 
8.739 6309.259 0.000 0.000 0.000 5.243 
8.749 6273.966 0.000 0.000 0.000 5.249 
8.759 6283.759 0.000 0.000 0.000 5.255 
8.769 6300.450 0.000 0.000 0.000 5.261 
8.779 6273.643 0.000 0.000 0.000 5.267 
8.789 6284.082 0.000 0.000 0.000 5.273 
8.799 6303.629 0.000 0.000 0.000 5.279 
8.809 6226.307 0.000 0.000 0.000 5.285 
8.819 6307.309 0.000 0.000 0.000 5.291 
8.829 6322.054 0.000 0.000 0.000 5.297 
8.839 6309.147 0.000 0.000 0.000 5.303 
8.849 6320.893 0.000 0.000 0.000 5.309 
8.859 6306.477 0.000 0.000 0.000 5.315 
8.869 6275.771 0.000 0.000 0.000 5.321 
8.879 6244.198 0.000 0.000 0.000 5.327 
8.889 6325.037 0.000 0.000 0.000 5.333 
8.899 6267.350 0.000 0.000 0.000 5.339 
8.909 6257.245 0.000 0.000 0.000 5.345 
8.919 6273.493 0.000 0.000 0.000 5.351 
8.929 6258.113 0.000 0.000 0.000 5.357 
8.939 6236.244 0.000 0.000 0.000 5.363 
8.949 6239.782 0.000 0.000 0.000 5.369 
8.959 6275.438 0.000 0.000 0.000 5.375 
8.969 6277.078 0.000 0.000 0.000 5.381 
8.979 6236.762 0.000 0.000 0.000 5.387 
8.989 6214.526 0.000 0.000 0.000 5.393 
8.999 6185.849 0.000 0.000 0.000 5.399 
9.009 6197.540 0.000 0.000 0.000 5.405 
9.019 6211.968 0.000 0.000 0.000 5.411 
9.029 6244.436 0.000 0.000 0.000 5.417 
9.039 6203.441 0.000 0.000 0.000 5.423 
9.049 6196.863 0.000 0.000 0.000 5.429 
9.059 6140.806 0.000 0.000 0.000 5.435 
9.069 6144.893 0.000 0.000 0.000 5.441 
9.079 6219.542 0.000 0.000 0.000 5.447 
9.089 6209.518 0.000 0.000 0.000 5.453 
9.099 6217.846 0.000 0.000 0.000 5.459 
9.109 6169.570 0.000 0.000 0.000 5.465 
9.119 6208.041 0.000 0.000 0.000 5.471 
9.129 6186.052 0.000 0.000 0.000 5.477 
9.139 6220.934 0.000 0.000 0.000 5.483 
9.149 6168.600 0.000 0.000 0.000 5.489 
9.159 6136.574 0.000 0.000 0.000 5.495 
9.169 6208.506 0.000 0.000 0.000 5.502 
9.179 6176.681 0.000 0.000 0.000 5.508 
9.189 6246.810 0.000 0.000 0.000 5.514 
9.199 6217.740 0.000 0.000 0.000 5.520 
9.209 6179.579 0.000 0.000 0.000 5.526 
9.219 6196.166 0.000 0.000 0.000 5.532 
9.229 6206.749 0.000 0.000 0.000 5.538 
9.239 6207.225 0.000 0.000 0.000 5.544 
9.249 6149.087 0.000 0.000 0.000 5.550 
9.259 6125.586 0.000 0.000 0.000 5.556 
9.269 6195.898 0.000 0.000 0.000 5.562 
9.279 6131.776 0.000 0.000 0.000 5.568 
9.289 6116.194 0.000 0.000 0.000 5.574 
9.299 6113.867 0.000 0.000 0.000 5.580 
9.309 6160.627 0.000 0.000 0.000 5.586 
9.319 6118.298 0.000 0.000 0.000 5.592 
9.329 6127.280 0.000 0.000 0.000 5.598 
9.339 6140.041 0.000 0.000 0.000 5.604 
9.349 6118.937 0.000 0.000 0.000 5.610 
9.359 6168.789 0.000 0.000 0.000 5.616 
9.369 6104.228 0.000 0.000 0.000 5.622 
9.379 6146.334 0.000 0.000 0.000 5.628 
9.389 6096.624 0.000 0.000 0.000 5.634 
9.399 6160.866 0.000 0.000 0.000 5.640 
9.409 6129.003 0.000 0.000 0.000 5.646 
9.419 6061.457 0.000 0.000 0.000 5.652 
9.429 6132.339 0.000 0.000 0.000 5.658 
9.439 6142.755 0.000 0.000 0.000 5.664 
9.449 6129.259 0.000 0.000 0.000 5.670 
9.459 6100.868 0.000 0.000 0.000 5.676 
9.469 6058.086 0.000 0.000 0.000 5.682 
9.479 6134.014 0.000 0.000 0.000 5.688 
9.489 6078.308 0.000 0.000 0.000 5.694 
9.499 6107.694 0.000 0.000 0.000 5.700 
9.510 6155.897 0.000 0.000 0.000 5.706 
9.520 6071.723 0.000 0.000 0.000 5.712 
9.530 6083.486 0.000 0.000 0.000 5.718 
9.540 6064.220 0.000 0.000 0.000 5.724 
9.550 6085.475 0.000 0.000 0.000 5.730 
9.560 6094.881 0.000 0.000 0.000 5.736 
9.570 6040.508 0.000 0.000 0.000 5.742 
9.580 6062.554 0.000 0.000 0.000 5.748 
9.590 6046.243 0.000 0.000 0.000 5.754 
9.600 6057.212 0.000 0.000 0.000 5.760 
9.610 6078.506 0.000 0.000 0.000 5.766 
9.620 6065.642 0.000 0.000 0.000 5.772 
9.630 6067.444 0.000 0.000 0.000 5.778 
9.640 6048.285 0.000 0.000 0.000 5.784 
9.650 6010.128 0.000 0.000 0.000 5.790 
9.660 5965.149 0.000 0.000 0.000 5.796 
9.670 6064.381 0.000 0.000 0.000 5.802 
9.680 6062.290 0.000 0.000 0.000 5.808 
9.690 6071.270 0.000 0.000 0.000 5.814 
9.700 6105.126 0.000 0.000 0.000 5.820 
9.710 6081.717 0.000 0.000 0.000 5.826 
9.720 6100.354 0.000 0.000 0.000 5.832 
9.730 5965.283 0.000 0.000 0.000 5.838 
9.740 6039.035 0.000 0.000 0.000 5.844 
9.750 5994.753 0.000 0.000 0.000 5.850 
9.760 6067.818 0.000 0.000 0.000 5.856 
9.770 5983.738 0.000 0.000 0.000 5.862 
9.780 6060.052 0.000 0.000 0.000 5.868 
9.790 5966.502 0.000 0.000 0.000 5.874 
9.800 6050.862 0.000 0.000 0.000 5.880 
9.810 6023.369 0.000 0.000 0.000 5.886 
9.820 5983.133 0.000 0.000 0.000 5.892 
9.830 5981.009 0.000 0.000 0.000 5.898 
9.840 5950.600 0.000 0.000 0.000 5.904 
9.850 6013.563 0.000 0.000 0.000 5.910 
9.860 6005.898 0.000 0.000 0.000 5.916 
9.870 5955.018 0.000 0.000 0.000 5.922 
9.880 6001.472 0.000 0.000 0.000 5.928 
9.890 6034.454 0.000 0.000 0.000 5.934 
9.900 6015.604 0.000 0.000 0.000 5.940 
9.910 6006.938 0.000 0.000 0.000 5.946 
9.920 5977.910 0.000 0.000 0.000 5.952 
9.930 5959.092 0.000 0.000 0.000 5.958 
9.940 6021.995 0.000 0.000 0.000 5.964 
9.950 5976.180 0.000 0.000 0.000 5.970 
9.960 5958.136 0.000 0.000 0.000 5.976 
9.970 5968.452 0.000 0.000 0.000 5.982 
9.980 5965.367 0.000 0.000 0.000 5.988 
9.990 5976.044 0.000 0.000 0.000 5.994 
10.000 5987.489 0.000 0.000 0.000 6.000 
"Specimen",1
"Specimen name:",""
"Width:",6.350000,"mm"
"Thickness:",1.524000,"mm"
"Length:",12.000000,"mm"
"Diameter:",5.000000,"um"
"Inner diameter:",0.500000,"mm"
"Outer diameter:",1.000000,"mm"
"Wall thickness:",0.500000,"mm"
"Area:",19.634954,"um*um"
"Linear density:",1.000000,"den"
"Sled weight:",9.806650,"N"
"Loading span:",0.000000,"mm"
"Support span:",1.000000,"mm"
"Span ratio:","2"
"Fixture type:","3-point"
"Comment:",""
"Included"
"Time sec","Stress Pa","Cycle Count","Total Cycle Count","Repetitions Count","Strain [Exten.] %"
0.000 9.217 0.000 0.000 0.000 0.000 
0.010 44.001 0.000 0.000 0.000 0.006 
0.020 71.066 0.000 0.000 0.000 0.012 
0.030 -33.798 0.000 0.000 0.000 0.018 
0.040 11.345 0.000 0.000 0.000 0.024 
0.050 66.739 0.000 0.000 0.000 0.030 
0.060 99.382 0.000 0.000 0.000 0.036 
0.070 144.880 0.000 0.000 0.000 0.042 
0.080 125.915 0.000 0.000 0.000 0.048 
0.090 194.809 0.000 0.000 0.000 0.054 
0.100 175.052 0.000 0.000 0.000 0.060 
0.110 208.902 0.000 0.000 0.000 0.066 
0.120 246.969 0.000 0.000 0.000 0.072 
0.130 218.198 0.000 0.000 0.000 0.078 
0.140 273.512 0.000 0.000 0.000 0.084 
0.150 307.545 0.000 0.000 0.000 0.090 
0.160 343.129 0.000 0.000 0.000 0.096 
0.170 370.239 0.000 0.000 0.000 0.102 
0.180 396.538 0.000 0.000 0.000 0.108 
0.190 407.714 0.000 0.000 0.000 0.114 
0.200 425.492 0.000 0.000 0.000 0.120 
0.210 447.232 0.000 0.000 0.000 0.126 
0.220 477.659 0.000 0.000 0.000 0.132 
0.230 517.592 0.000 0.000 0.000 0.138 
0.240 501.941 0.000 0.000 0.000 0.144 
0.250 585.761 0.000 0.000 0.000 0.150 
0.260 546.379 0.000 0.000 0.000 0.156 
0.270 623.094 0.000 0.000 0.000 0.162 
0.280 644.708 0.000 0.000 0.000 0.168 
0.290 654.424 0.000 0.000 0.000 0.174 
0.300 678.200 0.000 0.000 0.000 0.180 
0.310 684.939 0.000 0.000 0.000 0.186 
0.320 760.773 0.000 0.000 0.000 0.192 
0.330 775.992 0.000 0.000 0.000 0.198 
0.340 786.418 0.000 0.000 0.000 0.204 
0.350 772.786 0.000 0.000 0.000 0.210 
0.360 825.497 0.000 0.000 0.000 0.216 
0.370 809.249 0.000 0.000 0.000 0.222 
0.380 855.809 0.000 0.000 0.000 0.228 
0.390 894.837 0.000 0.000 0.000 0.234 
0.400 923.943 0.000 0.000 0.000 0.240 
0.410 897.102 0.000 0.000 0.000 0.246 
0.420 911.189 0.000 0.000 0.000 0.252 
0.430 1035.781 0.000 0.000 0.000 0.258 
0.440 1004.492 0.000 0.000 0.000 0.264 
0.450 1114.563 0.000 0.000 0.000 0.270 
0.460 1034.287 0.000 0.000 0.000 0.276 
0.470 1067.957 0.000 0.000 0.000 0.282 
0.480 1001.808 0.000 0.000 0.000 0.288 
0.490 1099.174 0.000 0.000 0.000 0.294 
0.501 1072.524 0.000 0.000 0.000 0.300 
0.511 1101.998 0.000 0.000 0.000 0.306 
0.521 1201.165 0.000 0.000 0.000 0.312 
0.531 1205.337 0.000 0.000 0.000 0.318 
0.541 1220.982 0.000 0.000 0.000 0.324 
0.551 1214.466 0.000 0.000 0.000 0.330 
0.561 1284.738 0.000 0.000 0.000 0.336 
0.571 1257.849 0.000 0.000 0.000 0.342 
0.581 1266.975 0.000 0.000 0.000 0.348 
0.591 1309.401 0.000 0.000 0.000 0.354 
0.601 1342.407 0.000 0.000 0.000 0.360 
0.611 1369.287 0.000 0.000 0.000 0.366 
0.621 1411.947 0.000 0.000 0.000 0.372 
0.631 1352.440 0.000 0.000 0.000 0.378 
0.641 1448.559 0.000 0.000 0.000 0.384 
0.651 1410.655 0.000 0.000 0.000 0.390 
0.661 1466.190 0.000 0.000 0.000 0.396 
0.671 1540.507 0.000 0.000 0.000 0.402 
0.681 1524.695 0.000 0.000 0.000 0.408 
0.691 1537.647 0.000 0.000 0.000 0.414 
0.701 1558.969 0.000 0.000 0.000 0.420 
0.711 1567.339 0.000 0.000 0.000 0.426 
0.721 1628.241 0.000 0.000 0.000 0.432 
0.731 1644.555 0.000 0.000 0.000 0.438 
0.741 1661.549 0.000 0.000 0.000 0.444 
0.751 1635.183 0.000 0.000 0.000 0.450 
0.761 1701.354 0.000 0.000 0.000 0.456 
0.771 1751.637 0.000 0.000 0.000 0.462 
0.781 1746.115 0.000 0.000 0.000 0.468 
0.791 1800.253 0.000 0.000 0.000 0.474 
0.801 1812.688 0.000 0.000 0.000 0.480 
0.811 1861.543 0.000 0.000 0.000 0.486 
0.821 1850.338 0.000 0.000 0.000 0.492 
0.831 1892.745 0.000 0.000 0.000 0.498 
0.841 1884.619 0.000 0.000 0.000 0.505 
0.851 1949.806 0.000 0.000 0.000 0.511 
0.861 1969.927 0.000 0.000 0.000 0.517 
0.871 2068.367 0.000 0.000 0.000 0.523 
0.881 2011.193 0.000 0.000 0.000 0.529 
0.891 2013.923 0.000 0.000 0.000 0.535 
0.901 2033.887 0.000 0.000 0.000 0.541 
0.911 2098.162 0.000 0.000 0.000 0.547 
0.921 2055.996 0.000 0.000 0.000 0.553 
0.931 2127.522 0.000 0.000 0.000 0.559 
0.941 2115.534 0.000 0.000 0.000 0.565 
0.951 2175.211 0.000 0.000 0.000 0.571 
0.961 2187.395 0.000 0.000 0.000 0.577 
0.971 2117.631 0.000 0.000 0.000 0.583 
0.981 2223.695 0.000 0.000 0.000 0.589 
0.991 2207.572 0.000 0.000 0.000 0.595 
1.001 2263.398 0.000 0.000 0.000 0.601 
1.011 2315.350 0.000 0.000 0.000 0.607 
1.021 2254.727 0.000 0.000 0.000 0.613 
1.031 2384.869 0.000 0.000 0.000 0.619 
1.041 2381.046 0.000 0.000 0.000 0.625 
1.051 2335.247 0.000 0.000 0.000 0.631 
1.061 2418.769 0.000 0.000 0.000 0.637 
1.071 2477.658 0.000 0.000 0.000 0.643 
1.081 2406.430 0.000 0.000 0.000 0.649 
1.091 2489.131 0.000 0.000 0.000 0.655 
1.101 2547.758 0.000 0.000 0.000 0.661 
1.111 2511.726 0.000 0.000 0.000 0.667 
1.121 2492.320 0.000 0.000 0.000 0.673 
1.131 2596.275 0.000 0.000 0.000 0.679 
1.141 2585.028 0.000 0.000 0.000 0.685 
1.151 2627.148 0.000 0.000 0.000 0.691 
1.161 2626.555 0.000 0.000 0.000 0.697 
1.171 2698.354 0.000 0.000 0.000 0.703 
1.181 2630.206 0.000 0.000 0.000 0.709 
1.191 2683.078 0.000 0.000 0.000 0.715 
1.201 2749.783 0.000 0.000 0.000 0.721 
1.211 2747.416 0.000 0.000 0.000 0.727 
1.221 2699.977 0.000 0.000 0.000 0.733 
1.231 2802.574 0.000 0.000 0.000 0.739 
1.241 2863.984 0.000 0.000 0.000 0.745 
1.251 2866.119 0.000 0.000 0.000 0.751 
1.261 2830.729 0.000 0.000 0.000 0.757 
1.271 2917.685 0.000 0.000 0.000 0.763 
1.281 2905.962 0.000 0.000 0.000 0.769 
1.291 2902.293 0.000 0.000 0.000 0.775 
1.301 2871.105 0.000 0.000 0.000 0.781 
1.311 2999.969 0.000 0.000 0.000 0.787 
1.321 2994.828 0.000 0.000 0.000 0.793 
1.331 3056.670 0.000 0.000 0.000 0.799 
1.341 3069.507 0.000 0.000 0.000 0.805 
1.351 3076.775 0.000 0.000 0.000 0.811 
1.361 3114.419 0.000 0.000 0.000 0.817 
1.371 3108.010 0.000 0.000 0.000 0.823 
1.381 3177.158 0.000 0.000 0.000 0.829 
1.391 3129.444 0.000 0.000 0.000 0.835 
1.401 3170.193 0.000 0.000 0.000 0.841 
1.411 3144.416 0.000 0.000 0.000 0.847 
1.421 3197.935 0.000 0.000 0.000 0.853 
1.431 3274.684 0.000 0.000 0.000 0.859 
1.441 3277.065 0.000 0.000 0.000 0.865 
1.451 3333.451 0.000 0.000 0.000 0.871 
1.461 3305.333 0.000 0.000 0.000 0.877 
1.471 3307.096 0.000 0.000 0.000 0.883 
1.481 3340.437 0.000 0.000 0.000 0.889 
1.491 3378.518 0.000 0.000 0.000 0.895 
1.502 3406.493 0.000 0.000 0.000 0.901 
1.512 3383.401 0.000 0.000 0.000 0.907 
1.522 3460.652 0.000 0.000 0.000 0.913 
1.532 3490.927 0.000 0.000 0.000 0.919 
1.542 3441.801 0.000 0.000 0.000 0.925 
1.552 3585.378 0.000 0.000 0.000 0.931 
1.562 3561.845 0.000 0.000 0.000 0.937 
1.572 3567.740 0.000 0.000 0.000 0.943 
1.582 3557.444 0.000 0.000 0.000 0.949 
1.592 3670.417 0.000 0.000 0.000 0.955 
1.602 3676.519 0.000 0.000 0.000 0.961 
1.612 3680.143 0.000 0.000 0.000 0.967 
1.622 3695.246 0.000 0.000 0.000 0.973 
1.632 3655.542 0.000 0.000 0.000 0.979 
1.642 3756.633 0.000 0.000 0.000 0.985 
1.652 3804.241 0.000 0.000 0.000 0.991 
1.662 3738.186 0.000 0.000 0.000 0.997 
1.672 3757.993 0.000 0.000 0.000 1.003 
1.682 3784.496 0.000 0.000 0.000 1.009 
1.692 3854.031 0.000 0.000 0.000 1.015 
1.702 3838.158 0.000 0.000 0.000 1.021 
1.712 3899.621 0.000 0.000 0.000 1.027 
1.722 3904.175 0.000 0.000 0.000 1.033 
1.732 3966.653 0.000 0.000 0.000 1.039 
1.742 3968.109 0.000 0.000 0.000 1.045 
1.752 3983.139 0.000 0.000 0.000 1.051 
1.762 3988.660 0.000 0.000 0.000 1.057 
1.772 3975.615 0.000 0.000 0.000 1.063 
1.782 3978.832 0.000 0.000 0.000 1.069 
1.792 4070.392 0.000 0.000 0.000 1.075 
1.802 4137.295 0.000 0.000 0.000 1.081 
1.812 4103.999 0.000 0.000 0.000 1.087 
1.822 4166.283 0.000 0.000 0.000 1.093 
1.832 4190.289 0.000 0.000 0.000 1.099 
1.842 4198.901 0.000 0.000 0.000 1.105 
1.852 4178.974 0.000 0.000 0.000 1.111 
1.862 4230.411 0.000 0.000 0.000 1.117 
1.872 4290.946 0.000 0.000 0.000 1.123 
1.882 4205.688 0.000 0.000 0.000 1.129 
1.892 4287.217 0.000 0.000 0.000 1.135 
1.902 4315.662 0.000 0.000 0.000 1.141 
1.912 4302.583 0.000 0.000 0.000 1.147 
1.922 4415.455 0.000 0.000 0.000 1.153 
1.932 4373.822 0.000 0.000 0.000 1.159 
1.942 4419.869 0.000 0.000 0.000 1.165 
1.952 4451.038 0.000 0.000 0.000 1.171 
1.962 4419.446 0.000 0.000 0.000 1.177 
1.972 4464.068 0.000 0.000 0.000 1.183 
1.982 4521.280 0.000 0.000 0.000 1.189 
1.992 4573.222 0.000 0.000 0.000 1.195 
2.002 4558.659 0.000 0.000 0.000 1.201 
2.012 4592.745 0.000 0.000 0.000 1.207 
2.022 4590.634 0.000 0.000 0.000 1.213 
2.032 4614.907 0.000 0.000 0.000 1.219 
2.042 4641.762 0.000 0.000 0.000 1.225 
2.052 4707.635 0.000 0.000 0.000 1.231 
2.062 4663.162 0.000 0.000 0.000 1.237 
2.072 4673.076 0.000 0.000 0.000 1.243 
2.082 4708.783 0.000 0.000 0.000 1.249 
2.092 4761.006 0.000 0.000 0.000 1.255 
2.102 4717.675 0.000 0.000 0.000 1.261 
2.112 4752.085 0.000 0.000 0.000 1.267 
2.122 4780.732 0.000 0.000 0.000 1.273 
2.132 4837.276 0.000 0.000 0.000 1.279 
2.142 4880.201 0.000 0.000 0.000 1.285 
2.152 4850.170 0.000 0.000 0.000 1.291 
2.162 4891.121 0.000 0.000 0.000 1.297 
2.172 4932.596 0.000 0.000 0.000 1.303 
2.182 5005.333 0.000 0.000 0.000 1.309 
2.192 5016.320 0.000 0.000 0.000 1.315 
2.202 5014.202 0.000 0.000 0.000 1.321 
2.212 4982.557 0.000 0.000 0.000 1.327 
2.222 5093.874 0.000 0.000 0.000 1.333 
2.232 5049.843 0.000 0.000 0.000 1.339 
2.242 5122.300 0.000 0.000 0.000 1.345 
2.252 5160.360 0.000 0.000 0.000 1.351 
2.262 5088.583 0.000 0.000 0.000 1.357 
2.272 5202.095 0.000 0.000 0.000 1.363 
2.282 5193.211 0.000 0.000 0.000 1.369 
2.292 5205.855 0.000 0.000 0.000 1.375 
2.302 5224.414 0.000 0.000 0.000 1.381 
2.312 5258.003 0.000 0.000 0.000 1.387 
2.322 5247.961 0.000 0.000 0.000 1.393 
2.332 5347.351 0.000 0.000 0.000 1.399 
2.342 5303.839 0.000 0.000 0.000 1.405 
2.352 5349.805 0.000 0.000 0.000 1.411 
2.362 5386.246 0.000 0.000 0.000 1.417 
2.372 5469.995 0.000 0.000 0.000 1.423 
2.382 5411.567 0.000 0.000 0.000 1.429 
2.392 5409.236 0.000 0.000 0.000 1.435 
2.402 5465.232 0.000 0.000 0.000 1.441 
2.412 5553.254 0.000 0.000 0.000 1.447 
2.422 5529.277 0.000 0.000 0.000 1.453 
2.432 5512.680 0.000 0.000 0.000 1.459 
2.442 5547.729 0.000 0.000 0.000 1.465 
2.452 5573.098 0.000 0.000 0.000 1.471 
2.462 5572.097 0.000 0.000 0.000 1.477 
2.472 5662.129 0.000 0.000 0.000 1.483 
2.482 5678.317 0.000 0.000 0.000 1.489 
2.492 5656.728 0.000 0.000 0.000 1.495 
2.503 5708.790 0.000 0.000 0.000 1.502 
2.513 5763.500 0.000 0.000 0.000 1.508 
2.523 5727.625 0.000 0.000 0.000 1.514 
2.533 5790.913 0.000 0.000 0.000 1.520 
2.543 5802.053 0.000 0.000 0.000 1.526 
2.553 5861.573 0.000 0.000 0.000 1.532 
2.563 5822.193 0.000 0.000 0.000 1.538 
2.573 5878.548 0.000 0.000 0.000 1.544 
2.583 5869.828 0.000 0.000 0.000 1.550 
2.593 5873.219 0.000 0.000 0.000 1.556 
2.603 5915.856 0.000 0.000 0.000 1.562 
2.613 5993.758 0.000 0.000 0.000 1.568 
2.623 5946.805 0.000 0.000 0.000 1.574 
2.633 6001.180 0.000 0.000 0.000 1.580 
2.643 6013.839 0.000 0.000 0.000 1.586 
2.653 6005.572 0.000 0.000 0.000 1.592 
2.663 6036.403 0.000 0.000 0.000 1.598 
2.673 6183.843 0.000 0.000 0.000 1.604 
2.683 6062.397 0.000 0.000 0.000 1.610 
2.693 6135.969 0.000 0.000 0.000 1.616 
2.703 6104.224 0.000 0.000 0.000 1.622 
2.713 6146.259 0.000 0.000 0.000 1.628 
2.723 6214.070 0.000 0.000 0.000 1.634 
2.733 6211.431 0.000 0.000 0.000 1.640 
2.743 6228.785 0.000 0.000 0.000 1.646 
2.753 6226.626 0.000 0.000 0.000 1.652 
2.763 6248.335 0.000 0.000 0.000 1.658 
2.773 6280.733 0.000 0.000 0.000 1.664 
2.783 6324.497 0.000 0.000 0.000 1.670 
2.793 6388.896 0.000 0.000 0.000 1.676 
2.803 6310.243 0.000 0.000 0.000 1.682 
2.813 6424.132 0.000 0.000 0.000 1.688 
2.823 6413.949 0.000 0.000 0.000 1.694 
2.833 6406.530 0.000 0.000 0.000 1.700 
2.843 6427.715 0.000 0.000 0.000 1.706 
2.853 6483.623 0.000 0.000 0.000 1.712 
2.863 6469.252 0.000 0.000 0.000 1.718 
2.873 6575.615 0.000 0.000 0.000 1.724 
2.883 6549.402 0.000 0.000 0.000 1.730 
2.893 6543.685 0.000 0.000 0.000 1.736 
2.903 6589.363 0.000 0.000 0.000 1.742 
2.913 6602.797 0.000 0.000 0.000 1.748 
2.923 6691.923 0.000 0.000 0.000 1.754 
2.933 6670.960 0.000 0.000 0.000 1.760 
2.943 6705.713 0.000 0.000 0.000 1.766 
2.953 6700.252 0.000 0.000 0.000 1.772 
2.963 6758.306 0.000 0.000 0.000 1.778 
2.973 6779.943 0.000 0.000 0.000 1.784 
2.983 6847.158 0.000 0.000 0.000 1.790 
2.993 6809.596 0.000 0.000 0.000 1.796 
3.003 6853.992 0.000 0.000 0.000 1.802 
3.013 6713.472 0.000 0.000 0.000 1.808 
3.023 6739.752 0.000 0.000 0.000 1.814 
3.033 6840.304 0.000 0.000 0.000 1.820 
3.043 6770.896 0.000 0.000 0.000 1.826 
3.053 6764.547 0.000 0.000 0.000 1.832 
3.063 6764.404 0.000 0.000 0.000 1.838 
3.073 6772.771 0.000 0.000 0.000 1.844 
3.083 6742.807 0.000 0.000 0.000 1.850 
3.093 6761.691 0.000 0.000 0.000 1.856 
3.103 6728.617 0.000 0.000 0.000 1.862 
3.113 6765.830 0.000 0.000 0.000 1.868 
3.123 6733.673 0.000 0.000 0.000 1.874 
3.133 6775.345 0.000 0.000 0.000 1.880 
3.143 6724.777 0.000 0.000 0.000 1.886 
3.153 6725.452 0.000 0.000 0.000 1.892 
3.163 6719.001 0.000 0.000 0.000 1.898 
3.173 6683.689 0.000 0.000 0.000 1.904 
3.183 6699.547 0.000 0.000 0.000 1.910 
3.193 6708.739 0.000 0.000 0.000 1.916 
3.203 6684.171 0.000 0.000 0.000 1.922 
3.213 6667.525 0.000 0.000 0.000 1.928 
3.223 6628.682 0.000 0.000 0.000 1.934 
3.233 6696.117 0.000 0.000 0.000 1.940 
3.243 6685.158 0.000 0.000 0.000 1.946 
3.253 6672.365 0.000 0.000 0.000 1.952 
3.263 6655.103 0.000 0.000 0.000 1.958 
3.273 6667.749 0.000 0.000 0.000 1.964 
3.283 6623.164 0.000 0.000 0.000 1.970 
3.293 6614.755 0.000 0.000 0.000 1.976 
3.303 6678.529 0.000 0.000 0.000 1.982 
3.313 6623.022 0.000 0.000 0.000 1.988 
3.323 6594.173 0.000 0.000 0.000 1.994 
3.333 6623.210 0.000 0.000 0.000 2.000 
3.343 6600.276 0.000 0.000 0.000 2.006 
3.353 6730.630 0.000 0.000 0.000 2.012 
3.363 6645.548 0.000 0.000 0.000 2.018 
3.373 6613.580 0.000 0.000 0.000 2.024 
3.383 6690.545 0.000 0.000 0.000 2.030 
3.393 6686.838 0.000 0.000 0.000 2.036 
3.403 6649.014 0.000 0.000 0.000 2.042 
3.413 6608.548 0.000 0.000 0.000 2.048 
3.423 6661.376 0.000 0.000 0.000 2.054 
3.433 6626.412 0.000 0.000 0.000 2.060 
3.443 6632.337 0.000 0.000 0.000 2.066 
3.453 6641.149 0.000 0.000 0.000 2.072 
3.463 6596.438 0.000 0.000 0.000 2.078 
3.473 6626.472 0.000 0.000 0.000 2.084 
3.483 6657.632 0.000 0.000 0.000 2.090 
3.493 6689.886 0.000 0.000 0.000 2.096 
3.504 6634.390 0.000 0.000 0.000 2.102 
3.514 6655.765 0.000 0.000 0.000 2.108 
3.524 6626.755 0.000 0.000 0.000 2.114 
3.534 6630.363 0.000 0.000 0.000 2.120 
3.544 6637.309 0.000 0.000 0.000 2.126 
3.554 6690.298 0.000 0.000 0.000 2.132 
3.564 6713.204 0.000 0.000 0.000 2.138 
3.574 6630.747 0.000 0.000 0.000 2.144 
3.584 6610.573 0.000 0.000 0.000 2.150 
3.594 6647.521 0.000 0.000 0.000 2.156 
3.604 6658.753 0.000 0.000 0.000 2.162 
3.614 6658.962 0.000 0.000 0.000 2.168 
3.624 6717.684 0.000 0.000 0.000 2.174 
3.634 6680.524 0.000 0.000 0.000 2.180 
3.644 6663.779 0.000 0.000 0.000 2.186 
3.654 6670.952 0.000 0.000 0.000 2.192 
3.664 6727.494 0.000 0.000 0.000 2.198 
3.674 6717.089 0.000 0.000 0.000 2.204 
3.684 6673.754 0.000 0.000 0.000 2.210 
3.694 6661.666 0.000 0.000 0.000 2.216 
3.704 6643.043 0.000 0.000 0.000 2.222 
3.714 6622.759 0.000 0.000 0.000 2.228 
3.724 6636.742 0.000 0.000 0.000 2.234 
3.734 6730.016 0.000 0.000 0.000 2.240 
3.744 6628.252 0.000 0.000 0.000 2.246 
3.754 6685.001 0.000 0.000 0.000 2.252 
3.764 6701.224 0.000 0.000 0.000 2.258 
3.774 6716.834 0.000 0.000 0.000 2.264 
3.784 6701.318 0.000 0.000 0.000 2.270 
3.794 6669.176 0.000 0.000 0.000 2.276 
3.804 6646.657 0.000 0.000 0.000 2.282 
3.814 6672.913 0.000 0.000 0.000 2.288 
3.824 6647.630 0.000 0.000 0.000 2.294 
3.834 6661.069 0.000 0.000 0.000 2.300 
3.844 6709.276 0.000 0.000 0.000 2.306 
3.854 6686.264 0.000 0.000 0.000 2.312 
3.864 6687.150 0.000 0.000 0.000 2.318 
3.874 6678.669 0.000 0.000 0.000 2.324 
3.884 6689.413 0.000 0.000 0.000 2.330 
3.894 6727.838 0.000 0.000 0.000 2.336 
3.904 6668.224 0.000 0.000 0.000 2.342 
3.914 6665.467 0.000 0.000 0.000 2.348 
3.924 6688.118 0.000 0.000 0.000 2.354 
3.934 6718.483 0.000 0.000 0.000 2.360 
3.944 6699.215 0.000 0.000 0.000 2.366 
3.954 6703.570 0.000 0.000 0.000 2.372 
3.964 6750.769 0.000 0.000 0.000 2.378 
3.974 6733.968 0.000 0.000 0.000 2.384 
3.984 6776.767 0.000 0.000 0.000 2.390 
3.994 6702.080 0.000 0.000 0.000 2.396 
4.004 6681.169 0.000 0.000 0.000 2.402 
4.014 6690.570 0.000 0.000 0.000 2.408 
4.024 6730.896 0.000 0.000 0.000 2.414 
4.034 6717.629 0.000 0.000 0.000 2.420 
4.044 6685.609 0.000 0.000 0.000 2.426 
4.054 6678.510 0.000 0.000 0.000 2.432 
4.064 6708.719 0.000 0.000 0.000 2.438 
4.074 6782.656 0.000 0.000 0.000 2.444 
4.084 6716.695 0.000 0.000 0.000 2.450 
4.094 6686.928 0.000 0.000 0.000 2.456 
4.104 6720.240 0.000 0.000 0.000 2.462 
4.114 6695.389 0.000 0.000 0.000 2.468 
4.124 6732.403 0.000 0.000 0.000 2.474 
4.134 6613.463 0.000 0.000 0.000 2.480 
4.144 6698.854 0.000 0.000 0.000 2.486 
4.154 6682.080 0.000 0.000 0.000 2.492 
4.164 6669.657 0.000 0.000 0.000 2.498 
4.174 6654.013 0.000 0.000 0.000 2.505 
4.184 6694.089 0.000 0.000 0.000 2.511 
4.194 6749.018 0.000 0.000 0.000 2.517 
4.204 6678.443 0.000 0.000 0.000 2.523 
4.214 6716.594 0.000 0.000 0.000 2.529 
4.224 6722.289 0.000 0.000 0.000 2.535 
4.234 6676.122 0.000 0.000 0.000 2.541 
4.244 6711.910 0.000 0.000 0.000 2.547 
4.254 6662.172 0.000 0.000 0.000 2.553 
4.264 6700.887 0.000 0.000 0.000 2.559 
4.274 6748.957 0.000 0.000 0.000 2.565 
4.284 6731.352 0.000 0.000 0.000 2.571 
4.294 6755.182 0.000 0.000 0.000 2.577 
4.304 6669.917 0.000 0.000 0.000 2.583 
4.314 6736.828 0.000 0.000 0.000 2.589 
4.324 6688.685 0.000 0.000 0.000 2.595 
4.334 6621.926 0.000 0.000 0.000 2.601 
4.344 6818.746 0.000 0.000 0.000 2.607 
4.354 6781.316 0.000 0.000 0.000 2.613 
4.364 6688.082 0.000 0.000 0.000 2.619 
4.374 6731.149 0.000 0.000 0.000 2.625 
4.384 6706.863 0.000 0.000 0.000 2.631 
4.394 6676.387 0.000 0.000 0.000 2.637 
4.404 6700.601 0.000 0.000 0.000 2.643 
4.414 6730.738 0.000 0.000 0.000 2.649 
4.424 6668.108 0.000 0.000 0.000 2.655 
4.434 6670.808 0.000 0.000 0.000 2.661 
4.444 6662.123 0.000 0.000 0.000 2.667 
4.454 6751.641 0.000 0.000 0.000 2.673 
4.464 6724.029 0.000 0.000 0.000 2.679 
4.474 6758.555 0.000 0.000 0.000 2.685 
4.484 6731.222 0.000 0.000 0.000 2.691 
4.494 6705.112 0.000 0.000 0.000 2.697 
4.505 6720.295 0.000 0.000 0.000 2.703 
4.515 6695.307 0.000 0.000 0.000 2.709 
4.525 6683.869 0.000 0.000 0.000 2.715 
4.535 6719.754 0.000 0.000 0.000 2.721 
4.545 6704.778 0.000 0.000 0.000 2.727 
4.555 6689.415 0.000 0.000 0.000 2.733 
4.565 6753.903 0.000 0.000 0.000 2.739 
4.575 6734.852 0.000 0.000 0.000 2.745 
4.585 6718.601 0.000 0.000 0.000 2.751 
4.595 6659.946 0.000 0.000 0.000 2.757 
4.605 6699.437 0.000 0.000 0.000 2.763 
4.615 6678.510 0.000 0.000 0.000 2.769 
4.625 6732.692 0.000 0.000 0.000 2.775 
4.635 6733.911 0.000 0.000 0.000 2.781 
4.645 6726.521 0.000 0.000 0.000 2.787 
4.655 6695.147 0.000 0.000 0.000 2.793 
4.665 6741.139 0.000 0.000 0.000 2.799 
4.675 6760.185 0.000 0.000 0.000 2.805 
4.685 6690.278 0.000 0.000 0.000 2.811 
4.695 6688.109 0.000 0.000 0.000 2.817 
4.705 6757.398 0.000 0.000 0.000 2.823 
4.715 6714.735 0.000 0.000 0.000 2.829 
4.725 6711.738 0.000 0.000 0.000 2.835 
4.735 6689.674 0.000 0.000 0.000 2.841 
4.745 6679.413 0.000 0.000 0.000 2.847 
4.755 6735.427 0.000 0.000 0.000 2.853 
4.765 6751.192 0.000 0.000 0.000 2.859 
4.775 6712.750 0.000 0.000 0.000 2.865 
4.785 6741.254 0.000 0.000 0.000 2.871 
4.795 6830.380 0.000 0.000 0.000 2.877 
4.805 6796.964 0.000 0.000 0.000 2.883 
4.815 6740.744 0.000 0.000 0.000 2.889 
4.825 6707.485 0.000 0.000 0.000 2.895 
4.835 6670.513 0.000 0.000 0.000 2.901 
4.845 6793.047 0.000 0.000 0.000 2.907 
4.855 6678.948 0.000 0.000 0.000 2.913 
4.865 6733.982 0.000 0.000 0.000 2.919 
4.875 6721.584 0.000 0.000 0.000 2.925 
4.885 6723.621 0.000 0.000 0.000 2.931 
4.895 6690.677 0.000 0.000 0.000 2.937 
4.905 6689.460 0.000 0.000 0.000 2.943 
4.915 6780.997 0.000 0.000 0.000 2.949 
4.925 6741.823 0.000 0.000 0.000 2.955 
4.935 6791.923 0.000 0.000 0.000 2.961 
4.945 6707.277 0.000 0.000 0.000 2.967 
4.955 6709.765 0.000 0.000 0.000 2.973 
4.965 6820.313 0.000 0.000 0.000 2.979 
4.975 6756.405 0.000 0.000 0.000 2.985 
4.985 6763.927 0.000 0.000 0.000 2.991 
4.995 6683.312 0.000 0.000 0.000 2.997 
5.005 6715.162 0.000 0.000 0.000 3.003 
5.015 6662.011 0.000 0.000 0.000 3.009 
5.025 6732.520 0.000 0.000 0.000 3.015 
5.035 6718.205 0.000 0.000 0.000 3.021 
5.045 6662.640 0.000 0.000 0.000 3.027 
5.055 6745.838 0.000 0.000 0.000 3.033 
5.065 6732.949 0.000 0.000 0.000 3.039 
5.075 6743.011 0.000 0.000 0.000 3.045 
5.085 6731.734 0.000 0.000 0.000 3.051 
5.095 6739.129 0.000 0.000 0.000 3.057 
5.105 6712.855 0.000 0.000 0.000 3.063 
5.115 6722.690 0.000 0.000 0.000 3.069 
5.125 6719.636 0.000 0.000 0.000 3.075 
5.135 6654.490 0.000 0.000 0.000 3.081 
5.145 6718.594 0.000 0.000 0.000 3.087 
5.155 6763.801 0.000 0.000 0.000 3.093 
5.165 6766.084 0.000 0.000 0.000 3.099 
5.175 6781.844 0.000 0.000 0.000 3.105 
5.185 6759.281 0.000 0.000 0.000 3.111 
5.195 6745.524 0.000 0.000 0.000 3.117 
5.205 6720.906 0.000 0.000 0.000 3.123 
5.215 6738.891 0.000 0.000 0.000 3.129 
5.225 6712.403 0.000 0.000 0.000 3.135 
5.235 6727.013 0.000 0.000 0.000 3.141 
5.245 6727.610 0.000 0.000 0.000 3.147 
5.255 6774.330 0.000 0.000 0.000 3.153 
5.265 6640.833 0.000 0.000 0.000 3.159 
5.275 6784.315 0.000 0.000 0.000 3.165 
5.285 6704.560 0.000 0.000 0.000 3.171 
5.295 6717.615 0.000 0.000 0.000 3.177 
5.305 6663.928 0.000 0.000 0.000 3.183 
5.315 6709.672 0.000 0.000 0.000 3.189 
5.325 6762.593 0.000 0.000 0.000 3.195 
5.335 6711.338 0.000 0.000 0.000 3.201 
5.345 6731.402 0.000 0.000 0.000 3.207 
5.355 6777.439 0.000 0.000 0.000 3.213 
5.365 6739.430 0.000 0.000 0.000 3.219 
5.375 6664.649 0.000 0.000 0.000 3.225 
5.385 6790.411 0.000 0.000 0.000 3.231 
5.395 6677.149 0.000 0.000 0.000 3.237 
5.405 6678.282 0.000 0.000 0.000 3.243 
5.415 6706.996 0.000 0.000 0.000 3.249 
5.425 6749.323 0.000 0.000 0.000 3.255 
5.435 6697.451 0.000 0.000 0.000 3.261 
5.445 6743.656 0.000 0.000 0.000 3.267 
5.455 6644.497 0.000 0.000 0.000 3.273 
5.465 6771.871 0.000 0.000 0.000 3.279 
5.475 6632.091 0.000 0.000 0.000 3.285 
5.485 6709.403 0.000 0.000 0.000 3.291 
5.495 6762.500 0.000 0.000 0.000 3.297 
5.506 6705.166 0.000 0.000 0.000 3.303 
5.516 6714.637 0.000 0.000 0.000 3.309 
5.526 6771.838 0.000 0.000 0.000 3.315 
5.536 6687.436 0.000 0.000 0.000 3.321 
5.546 6714.125 0.000 0.000 0.000 3.327 
5.556 6662.736 0.000 0.000 0.000 3.333 
5.566 6696.640 0.000 0.000 0.000 3.339 
5.576 6677.291 0.000 0.000 0.000 3.345 
5.586 6710.691 0.000 0.000 0.000 3.351 
5.596 6747.124 0.000 0.000 0.000 3.357 
5.606 6692.940 0.000 0.000 0.000 3.363 
5.616 6701.197 0.000 0.000 0.000 3.369 
5.626 6718.344 0.000 0.000 0.000 3.375 
5.636 6695.396 0.000 0.000 0.000 3.381 
5.646 6700.884 0.000 0.000 0.000 3.387 
5.656 6724.833 0.000 0.000 0.000 3.393 
5.666 6753.505 0.000 0.000 0.000 3.399 
5.676 6739.997 0.000 0.000 0.000 3.405 
5.686 6735.946 0.000 0.000 0.000 3.411 
5.696 6705.751 0.000 0.000 0.000 3.417 
5.706 6671.931 0.000 0.000 0.000 3.423 
5.716 6680.450 0.000 0.000 0.000 3.429 
5.726 6746.516 0.000 0.000 0.000 3.435 
5.736 6709.988 0.000 0.000 0.000 3.441 
5.746 6701.293 0.000 0.000 0.000 3.447 
5.756 6728.696 0.000 0.000 0.000 3.453 
5.766 6745.044 0.000 0.000 0.000 3.459 
5.776 6736.412 0.000 0.000 0.000 3.465 
5.786 6713.248 0.000 0.000 0.000 3.471 
5.796 6671.009 0.000 0.000 0.000 3.477 
5.806 6716.311 0.000 0.000 0.000 3.483 
5.816 6711.947 0.000 0.000 0.000 3.489 
5.826 6787.344 0.000 0.000 0.000 3.495 
5.836 6690.891 0.000 0.000 0.000 3.502 
5.846 6748.794 0.000 0.000 0.000 3.508 
5.856 6684.109 0.000 0.000 0.000 3.514 
5.866 6696.620 0.000 0.000 0.000 3.520 
5.876 6682.702 0.000 0.000 0.000 3.526 
5.886 6715.928 0.000 0.000 0.000 3.532 
5.896 6691.577 0.000 0.000 0.000 3.538 
5.906 6722.671 0.000 0.000 0.000 3.544 
5.916 6678.611 0.000 0.000 0.000 3.550 
5.926 6681.130 0.000 0.000 0.000 3.556 
5.936 6739.154 0.000 0.000 0.000 3.562 
5.946 6687.242 0.000 0.000 0.000 3.568 
5.956 6704.069 0.000 0.000 0.000 3.574 
5.966 6703.930 0.000 0.000 0.000 3.580 
5.976 6686.489 0.000 0.000 0.000 3.586 
5.986 6709.781 0.000 0.000 0.000 3.592 
5.996 6749.436 0.000 0.000 0.000 3.598 
6.006 6735.744 0.000 0.000 0.000 3.604 
6.016 6768.262 0.000 0.000 0.000 3.610 
6.026 6741.262 0.000 0.000 0.000 3.616 
6.036 6708.783 0.000 0.000 0.000 3.622 
6.046 6727.023 0.000 0.000 0.000 3.628 
6.056 6709.763 0.000 0.000 0.000 3.634 
6.066 6695.268 0.000 0.000 0.000 3.640 
6.076 6698.200 0.000 0.000 0.000 3.646 
6.086 6650.956 0.000 0.000 0.000 3.652 
6.096 6605.920 0.000 0.000 0.000 3.658 
6.106 6688.067 0.000 0.000 0.000 3.664 
6.116 6698.560 0.000 0.000 0.000 3.670 
6.126 6693.172 0.000 0.000 0.000 3.676 
6.136 6695.855 0.000 0.000 0.000 3.682 
6.146 6691.476 0.000 0.000 0.000 3.688 
6.156 6654.886 0.000 0.000 0.000 3.694 
6.166 6638.439 0.000 0.000 0.000 3.700 
6.176 6660.351 0.000 0.000 0.000 3.706 
6.186 6662.249 0.000 0.000 0.000 3.712 
6.196 6619.168 0.000 0.000 0.000 3.718 
6.206 6700.161 0.000 0.000 0.000 3.724 
6.216 6680.528 0.000 0.000 0.000 3.730 
6.226 6630.185 0.000 0.000 0.000 3.736 
6.236 6727.144 0.000 0.000 0.000 3.742 
6.246 6664.359 0.000 0.000 0.000 3.748 
6.256 6716.794 0.000 0.000 0.000 3.754 
6.266 6728.305 0.000 0.000 0.000 3.760 
6.276 6685.625 0.000 0.000 0.000 3.766 
6.286 6663.289 0.000 0.000 0.000 3.772 
6.296 6687.830 0.000 0.000 0.000 3.778 
6.306 6701.799 0.000 0.000 0.000 3.784 
6.316 6602.278 0.000 0.000 0.000 3.790 
6.326 6696.841 0.000 0.000 0.000 3.796 
6.336 6688.767 0.000 0.000 0.000 3.802 
6.346 6749.787 0.000 0.000 0.000 3.808 
6.356 6724.411 0.000 0.000 0.000 3.814 
6.366 6704.062 0.000 0.000 0.000 3.820 
6.376 6634.523 0.000 0.000 0.000 3.826 
6.386 6654.730 0.000 0.000 0.000 3.832 
6.396 6609.866 0.000 0.000 0.000 3.838 
6.406 6693.904 0.000 0.000 0.000 3.844 
6.416 6662.209 0.000 0.000 0.000 3.850 
6.426 6614.609 0.000 0.000 0.000 3.856 
6.436 6688.721 0.000 0.000 0.000 3.862 
6.446 6678.210 0.000 0.000 0.000 3.868 
6.456 6711.546 0.000 0.000 0.000 3.874 
6.466 6649.034 0.000 0.000 0.000 3.880 
6.476 6613.378 0.000 0.000 0.000 3.886 
6.486 6661.816 0.000 0.000 0.000 3.892 
6.496 6673.013 0.000 0.000 0.000 3.898 
6.507 6730.916 0.000 0.000 0.000 3.904 
6.517 6621.077 0.000 0.000 0.000 3.910 
6.527 6668.757 0.000 0.000 0.000 3.916 
6.537 6624.924 0.000 0.000 0.000 3.922 
6.547 6664.634 0.000 0.000 0.000 3.928 
6.557 6653.156 0.000 0.000 0.000 3.934 
6.567 6673.220 0.000 0.000 0.000 3.940 
6.577 6647.622 0.000 0.000 0.000 3.946 
6.587 6691.536 0.000 0.000 0.000 3.952 
6.597 6645.289 0.000 0.000 0.000 3.958 
6.607 6614.147 0.000 0.000 0.000 3.964 
6.617 6567.080 0.000 0.000 0.000 3.970 
6.627 6637.913 0.000 0.000 0.000 3.976 
6.637 6616.984 0.000 0.000 0.000 3.982 
6.647 6683.849 0.000 0.000 0.000 3.988 
6.657 6619.616 0.000 0.000 0.000 3.994 
6.667 6635.174 0.000 0.000 0.000 4.000 
6.677 6638.105 0.000 0.000 0.000 4.006 
6.687 6684.758 0.000 0.000 0.000 4.012 
6.697 6679.743 0.000 0.000 0.000 4.018 
6.707 6606.357 0.000 0.000 0.000 4.024 
6.717 6672.927 0.000 0.000 0.000 4.030 
6.727 6660.593 0.000 0.000 0.000 4.036 
6.737 6630.385 0.000 0.000 0.000 4.042 
6.747 6628.074 0.000 0.000 0.000 4.048 
6.757 6629.821 0.000 0.000 0.000 4.054 
6.767 6608.172 0.000 0.000 0.000 4.060 
6.777 6631.954 0.000 0.000 0.000 4.066 
6.787 6569.874 0.000 0.000 0.000 4.072 
6.797 6595.272 0.000 0.000 0.000 4.078 
6.807 6582.085 0.000 0.000 0.000 4.084 
6.817 6626.186 0.000 0.000 0.000 4.090 
6.827 6616.476 0.000 0.000 0.000 4.096 
6.837 6626.397 0.000 0.000 0.000 4.102 
6.847 6572.981 0.000 0.000 0.000 4.108 
6.857 6600.649 0.000 0.000 0.000 4.114 
6.867 6632.651 0.000 0.000 0.000 4.120 
6.877 6699.917 0.000 0.000 0.000 4.126 
6.887 6596.959 0.000 0.000 0.000 4.132 
6.897 6673.610 0.000 0.000 0.000 4.138 
6.907 6609.792 0.000 0.000 0.000 4.144 
6.917 6594.570 0.000 0.000 0.000 4.150 
6.927 6584.919 0.000 0.000 0.000 4.156 
6.937 6673.793 0.000 0.000 0.000 4.162 
6.947 6596.090 0.000 0.000 0.000 4.168 
6.957 6568.085 0.000 0.000 0.000 4.174 
6.967 6592.397 0.000 0.000 0.000 4.180 
6.977 6604.363 0.000 0.000 0.000 4.186 
6.987 6582.213 0.000 0.000 0.000 4.192 
6.997 6590.127 0.000 0.000 0.000 4.198 
7.007 6566.372 0.000 0.000 0.000 4.204 
7.017 6535.917 0.000 0.000 0.000 4.210 
7.027 6646.275 0.000 0.000 0.000 4.216 
7.037 6527.018 0.000 0.000 0.000 4.222 
7.047 6600.582 0.000 0.000 0.000 4.228 
7.057 6605.652 0.000 0.000 0.000 4.234 
7.067 6622.377 0.000 0.000 0.000 4.240 
7.077 6598.872 0.000 0.000 0.000 4.246 
7.087 6546.905 0.000 0.000 0.000 4.252 
7.097 6558.318 0.000 0.000 0.000 4.258 
7.107 6536.693 0.000 0.000 0.000 4.264 
7.117 6588.290 0.000 0.000 0.000 4.270 
7.127 6508.522 0.000 0.000 0.000 4.276 
7.137 6562.894 0.000 0.000 0.000 4.282 
7.147 6568.577 0.000 0.000 0.000 4.288 
7.157 6520.686 0.000 0.000 0.000 4.294 
7.167 6597.614 0.000 0.000 0.000 4.300 
7.177 6572.816 0.000 0.000 0.000 4.306 
7.187 6600.221 0.000 0.000 0.000 4.312 
7.197 6594.150 0.000 0.000 0.000 4.318 
7.207 6563.554 0.000 0.000 0.000 4.324 
7.217 6551.181 0.000 0.000 0.000 4.330 
7.227 6639.181 0.000 0.000 0.000 4.336 
7.237 6560.706 0.000 0.000 0.000 4.342 
7.247 6623.690 0.000 0.000 0.000 4.348 
7.257 6513.344 0.000 0.000 0.000 4.354 
7.267 6505.411 0.000 0.000 0.000 4.360 
7.277 6498.286 0.000 0.000 0.000 4.366 
7.287 6513.915 0.000 0.000 0.000 4.372 
7.297 6584.839 0.000 0.000 0.000 4.378 
7.307 6550.129 0.000 0.000 0.000 4.384 
7.317 6545.355 0.000 0.000 0.000 4.390 
7.327 6592.628 0.000 0.000 0.000 4.396 
7.337 6548.746 0.000 0.000 0.000 4.402 
7.347 6570.768 0.000 0.000 0.000 4.408 
7.357 6576.231 0.000 0.000 0.000 4.414 
7.367 6550.473 0.000 0.000 0.000 4.420 
7.377 6523.601 0.000 0.000 0.000 4.426 
7.387 6584.114 0.000 0.000 0.000 4.432 
7.397 6532.780 0.000 0.000 0.000 4.438 
7.407 6523.215 0.000 0.000 0.000 4.444 
7.417 6555.395 0.000 0.000 0.000 4.450 
7.427 6578.965 0.000 0.000 0.000 4.456 
7.437 6501.377 0.000 0.000 0.000 4.462 
7.447 6516.748 0.000 0.000 0.000 4.468 
7.457 6542.129 0.000 0.000 0.000 4.474 
7.467 6565.687 0.000 0.000 0.000 4.480 
7.477 6554.037 0.000 0.000 0.000 4.486 
7.487 6547.115 0.000 0.000 0.000 4.492 
7.497 6552.526 0.000 0.000 0.000 4.498 
7.508 6482.351 0.000 0.000 0.000 4.505 
7.518 6609.734 0.000 0.000 0.000 4.511 
7.528 6516.407 0.000 0.000 0.000 4.517 
7.538 6575.044 0.000 0.000 0.000 4.523 
7.548 6516.002 0.000 0.000 0.000 4.529 
7.558 6549.029 0.000 0.000 0.000 4.535 
7.568 6499.747 0.000 0.000 0.000 4.541 
7.578 6475.699 0.000 0.000 0.000 4.547 
7.588 6472.892 0.000 0.000 0.000 4.553 
7.598 6524.636 0.000 0.000 0.000 4.559 
7.608 6489.837 0.000 0.000 0.000 4.565 
7.618 6496.635 0.000 0.000 0.000 4.571 
7.628 6526.849 0.000 0.000 0.000 4.577 
7.638 6523.057 0.000 0.000 0.000 4.583 
7.648 6505.577 0.000 0.000 0.000 4.589 
7.658 6454.434 0.000 0.000 0.000 4.595 
7.668 6466.057 0.000 0.000 0.000 4.601 
7.678 6524.925 0.000 0.000 0.000 4.607 
7.688 6536.573 0.000 0.000 0.000 4.613 
7.698 6440.370 0.000 0.000 0.000 4.619 
7.708 6514.602 0.000 0.000 0.000 4.625 
7.718 6493.400 0.000 0.000 0.000 4.631 
7.728 6494.810 0.000 0.000 0.000 4.637 
7.738 6520.616 0.000 0.000 0.000 4.643 
7.748 6506.963 0.000 0.000 0.000 4.649 
7.758 6470.425 0.000 0.000 0.000 4.655 
7.768 6434.772 0.000 0.000 0.000 4.661 
7.778 6453.862 0.000 0.000 0.000 4.667 
7.788 6467.679 0.000 0.000 0.000 4.673 
7.798 6516.575 0.000 0.000 0.000 4.679 
7.808 6468.140 0.000 0.000 0.000 4.685 
7.818 6497.247 0.000 0.000 0.000 4.691 
7.828 6468.064 0.000 0.000 0.000 4.697 
7.838 6463.291 0.000 0.000 0.000 4.703 
7.848 6506.105 0.000 0.000 0.000 4.709 
7.858 6490.735 0.000 0.000 0.000 4.715 
7.868 6423.700 0.000 0.000 0.000 4.721 
7.878 6466.803 0.000 0.000 0.000 4.727 
7.888 6481.686 0.000 0.000 0.000 4.733 
7.898 6415.648 0.000 0.000 0.000 4.739 
7.908 6463.570 0.000 0.000 0.000 4.745 
7.918 6483.931 0.000 0.000 0.000 4.751 
7.928 6434.271 0.000 0.000 0.000 4.757 
7.938 6437.137 0.000 0.000 0.000 4.763 
7.948 6429.458 0.000 0.000 0.000 4.769 
7.958 6440.307 0.000 0.000 0.000 4.775 
7.968 6445.592 0.000 0.000 0.000 4.781 
7.978 6460.097 0.000 0.000 0.000 4.787 
7.988 6440.521 0.000 0.000 0.000 4.793 
7.998 6458.898 0.000 0.000 0.000 4.799 
8.008 6439.152 0.000 0.000 0.000 4.805 
8.018 6483.138 0.000 0.000 0.000 4.811 
8.028 6450.054 0.000 0.000 0.000 4.817 
8.038 6450.129 0.000 0.000 0.000 4.823 
8.048 6457.551 0.000 0.000 0.000 4.829 
8.058 6435.981 0.000 0.000 0.000 4.835 
8.068 6473.036 0.000 0.000 0.000 4.841 
8.078 6481.439 0.000 0.000 0.000 4.847 
8.088 6405.541 0.000 0.000 0.000 4.853 
8.098 6484.203 0.000 0.000 0.000 4.859 
8.108 6388.024 0.000 0.000 0.000 4.865 
8.118 6421.618 0.000 0.000 0.000 4.871 
8.128 6416.372 0.000 0.000 0.000 4.877 
8.138 6413.455 0.000 0.000 0.000 4.883 
8.148 6408.394 0.000 0.000 0.000 4.889 
8.158 6410.512 0.000 0.000 0.000 4.895 
8.168 6406.415 0.000 0.000 0.000 4.901 
8.178 6457.352 0.000 0.000 0.000 4.907 
8.188 6381.401 0.000 0.000 0.000 4.913 
8.198 6387.666 0.000 0.000 0.000 4.919 
8.208 6382.865 0.000 0.000 0.000 4.925 
8.218 6445.585 0.000 0.000 0.000 4.931 
8.228 6427.774 0.000 0.000 0.000 4.937 
8.238 6386.350 0.000 0.000 0.000 4.943 
8.248 6376.665 0.000 0.000 0.000 4.949 
8.258 6434.374 0.000 0.000 0.000 4.955 
8.268 6369.580 0.000 0.000 0.000 4.961 
8.278 6362.765 0.000 0.000 0.000 4.967 
8.288 6337.992 0.000 0.000 0.000 4.973 
8.298 6396.881 0.000 0.000 0.000 4.979 
8.308 6376.374 0.000 0.000 0.000 4.985 
8.318 6404.839 0.000 0.000 0.000 4.991 
8.328 6409.257 0.000 0.000 0.000 4.997 
8.338 6376.609 0.000 0.000 0.000 5.003 
8.348 6348.965 0.000 0.000 0.000 5.009 
8.358 6337.155 0.000 0.000 0.000 5.015 
8.368 6367.006 0.000 0.000 0.000 5.021 
8.378 6394.198 0.000 0.000 0.000 5.027 
8.388 6320.841 0.000 0.000 0.000 5.033 
8.398 6395.096 0.000 0.000 0.000 5.039 
8.408 6351.234 0.000 0.000 0.000 5.045 
8.418 6423.894 0.000 0.000 0.000 5.051 
8.428 6358.871 0.000 0.000 0.000 5.057 
8.438 6388.261 0.000 0.000 0.000 5.063 
8.448 6320.408 0.000 0.000 0.000 5.069 
8.458 6341.931 0.000 0.000 0.000 5.075 
8.468 6341.509 0.000 0.000 0.000 5.081 
8.478 6343.273 0.000 0.000 0.000 5.087 
8.488 6401.416 0.000 0.000 0.000 5.093 
8.498 6428.193 0.000 0.000 0.000 5.099 
8.509 6382.878 0.000 0.000 0.000 5.105 
8.519 6335.462 0.000 0.000 0.000 5.111 
8.529 6445.045 0.000 0.000 0.000 5.117 
8.539 6350.743 0.000 0.000 0.000 5.123 
8.549 6426.923 0.000 0.000 0.000 5.129 
8.559 6357.625 0.000 0.000 0.000 5.135 
8.569 6318.285 0.000 0.000 0.000 5.141 
8.579 6276.056 0.000 0.000 0.000 5.147 
8.589 6360.752 0.000 0.000 0.000 5.153 
8.599 6338.577 0.000 0.000 0.000 5.159 
8.609 6313.855 0.000 0.000 0.000 5.165 
8.619 6333.815 0.000 0.000 0.000 5.171 
8.629 6401.290 0.000 0.000 0.000 5.177 
8.639 6399.805 0.000 0.000 0.000 5.183 
8.649 6359.660 0.000 0.000 0.000 5.189 
8.659 6330.473 0.000 0.000 0.000 5.195 
8.669 6253.267 0.000 0.000 0.000 5.201 
8.679 6336.472 0.000 0.000 0.000 5.207 
8.689 6352.612 0.000 0.000 0.000 5.213 
8.699 6268.289 0.000 0.000 0.000 5.219 
8.709 6257.140 0.000 0.000 0.000 5.225 
8.719 6279.564 0.000 0.000 0.000 5.231 
8.729 6289.135 0.000 0.000 0.000 5.237 
8.739 6390.249 0.000 0.000 0.000 5.243 
8.749 6296.167 0.000 0.000 0.000 5.249 
8.759 6283.558 0.000 0.000 0.000 5.255 
8.769 6249.544 0.000 0.000 0.000 5.261 
8.779 6244.539 0.000 0.000 0.000 5.267 
8.789 6245.829 0.000 0.000 0.000 5.273 
8.799 6288.112 0.000 0.000 0.000 5.279 
8.809 6258.126 0.000 0.000 0.000 5.285 
8.819 6305.828 0.000 0.000 0.000 5.291 
8.829 6280.144 0.000 0.000 0.000 5.297 
8.839 6213.942 0.000 0.000 0.000 5.303 
8.849 6289.378 0.000 0.000 0.000 5.309 
8.859 6225.302 0.000 0.000 0.000 5.315 
8.869 6310.571 0.000 0.000 0.000 5.321 
8.879 6280.454 0.000 0.000 0.000 5.327 
8.889 6240.416 0.000 0.000 0.000 5.333 
8.899 6281.841 0.000 0.000 0.000 5.339 
8.909 6249.946 0.000 0.000 0.000 5.345 
8.919 6220.048 0.000 0.000 0.000 5.351 
8.929 6226.610 0.000 0.000 0.000 5.357 
8.939 6251.607 0.000 0.000 0.000 5.363 
8.949 6208.418 0.000 0.000 0.000 5.369 
8.959 6191.654 0.000 0.000 0.000 5.375 
8.969 6243.361 0.000 0.000 0.000 5.381 
8.979 6308.486 0.000 0.000 0.000 5.387 
8.989 6230.099 0.000 0.000 0.000 5.393 
8.999 6297.421 0.000 0.000 0.000 5.399 
9.009 6197.456 0.000 0.000 0.000 5.405 
9.019 6289.815 0.000 0.000 0.000 5.411 
9.029 6242.828 0.000 0.000 0.000 5.417 
9.039 6177.891 0.000 0.000 0.000 5.423 
9.049 6264.542 0.000 0.000 0.000 5.429 
9.059 6178.970 0.000 0.000 0.000 5.435 
9.069 6215.422 0.000 0.000 0.000 5.441 
9.079 6232.693 0.000 0.000 0.000 5.447 
9.089 6216.640 0.000 0.000 0.000 5.453 
9.099 6183.878 0.000 0.000 0.000 5.459 
9.109 6175.923 0.000 0.000 0.000 5.465 
9.119 6252.430 0.000 0.000 0.000 5.471 
9.129 6190.218 0.000 0.000 0.000 5.477 
9.139 6186.797 0.000 0.000 0.000 5.483 
9.149 6209.573 0.000 0.000 0.000 5.489 
9.159 6196.915 0.000 0.000 0.000 5.495 
9.169 6198.161 0.000 0.000 0.000 5.502 
9.179 6169.239 0.000 0.000 0.000 5.508 
9.189 6230.401 0.000 0.000 0.000 5.514 
9.199 6216.000 0.000 0.000 0.000 5.520 
9.209 6166.316 0.000 0.000 0.000 5.526 
9.219 6146.199 0.000 0.000 0.000 5.532 
9.229 6182.953 0.000 0.000 0.000 5.538 
9.239 6172.246 0.000 0.000 0.000 5.544 
9.249 6141.603 0.000 0.000 0.000 5.550 
9.259 6181.201 0.000 0.000 0.000 5.556 
9.269 6167.914 0.000 0.000 0.000 5.562 
9.279 6130.264 0.000 0.000 0.000 5.568 
9.289 6178.649 0.000 0.000 0.000 5.574 
9.299 6136.745 0.000 0.000 0.000 5.580 
9.309 6091.429 0.000 0.000 0.000 5.586 
9.319 6179.268 0.000 0.000 0.000 5.592 
9.329 6132.336 0.000 0.000 0.000 5.598 
9.339 6116.238 0.000 0.000 0.000 5.604 
9.349 6084.004 0.000 0.000 0.000 5.610 
9.359 6080.684 0.000 0.000 0.000 5.616 
9.369 6170.452 0.000 0.000 0.000 5.622 
9.379 6142.467 0.000 0.000 0.000 5.628 
9.389 6160.466 0.000 0.000 0.000 5.634 
9.399 6160.370 0.000 0.000 0.000 5.640 
9.409 6124.236 0.000 0.000 0.000 5.646 
9.419 6111.821 0.000 0.000 0.000 5.652 
9.429 6085.032 0.000 0.000 0.000 5.658 
9.439 6098.191 0.000 0.000 0.000 5.664 
9.449 6115.379 0.000 0.000 0.000 5.670 
9.459 6127.475 0.000 0.000 0.000 5.676 
9.469 6135.635 0.000 0.000 0.000 5.682 
9.479 6088.364 0.000 0.000 0.000 5.688 
9.489 6118.885 0.000 0.000 0.000 5.694 
9.499 6126.053 0.000 0.000 0.000 5.700 
9.510 6039.682 0.000 0.000 0.000 5.706 
9.520 6095.124 0.000 0.000 0.000 5.712 
9.530 6104.136 0.000 0.000 0.000 5.718 
9.540 6040.945 0.000 0.000 0.000 5.724 
9.550 6005.590 0.000 0.000 0.000 5.730 
9.560 6102.652 0.000 0.000 0.000 5.736 
9.570 6048.603 0.000 0.000 0.000 5.742 
9.580 6054.201 0.000 0.000 0.000 5.748 
9.590 6056.645 0.000 0.000 0.000 5.754 
9.600 6099.016 0.000 0.000 0.000 5.760 
9.610 6100.317 0.000 0.000 0.000 5.766 
9.620 5990.428 0.000 0.000 0.000 5.772 
9.630 6092.677 0.000 0.000 0.000 5.778 
9.640 6033.912 0.000 0.000 0.000 5.784 
9.650 6068.827 0.000 0.000 0.000 5.790 
9.660 6046.342 0.000 0.000 0.000 5.796 
9.670 6047.270 0.000 0.000 0.000 5.802 
9.680 6039.910 0.000 0.000 0.000 5.808 
9.690 6008.208 0.000 0.000 0.000 5.814 
9.700 6074.347 0.000 0.000 0.000 5.820 
9.710 6022.014 0.000 0.000 0.000 5.826 
9.720 6088.602 0.000 0.000 0.000 5.832 
9.730 6051.875 0.000 0.000 0.000 5.838 
9.740 6085.238 0.000 0.000 0.000 5.844 
9.750 6007.488 0.000 0.000 0.000 5.850 
9.760 5979.329 0.000 0.000 0.000 5.856 
9.770 6022.277 0.000 0.000 0.000 5.862 
9.780 6009.650 0.000 0.000 0.000 5.868 
9.790 5944.933 0.000 0.000 0.000 5.874 
9.800 6006.418 0.000 0.000 0.000 5.880 
9.810 6056.307 0.000 0.000 0.000 5.886 
9.820 6001.384 0.000 0.000 0.000 5.892 
9.830 5979.044 0.000 0.000 0.000 5.898 
9.840 5995.720 0.000 0.000 0.000 5.904 
9.850 6020.459 0.000 0.000 0.000 5.910 
9.860 6010.301 0.000 0.000 0.000 5.916 
9.870 5938.408 0.000 0.000 0.000 5.922 
9.880 5941.959 0.000 0.000 0.000 5.928 
9.890 6018.534 0.000 0.000 0.000 5.934 
9.900 6002.042 0.000 0.000 0.000 5.940 
9.910 5929.123 0.000 0.000 0.000 5.946 
9.920 5985.107 0.000 0.000 0.000 5.952 
9.930 6033.545 0.000 0.000 0.000 5.958 
9.940 5920.491 0.000 0.000 0.000 5.964 
9.950 5955.030 0.000 0.000 0.000 5.970 
9.960 5944.547 0.000 0.000 0.000 5.976 
9.970 5956.968 0.000 0.000 0.000 5.982 
9.980 6001.450 0.000 0.000 0.000 5.988 
9.990 5941.145 0.000 0.000 0.000 5.994 
10.000 5982.846 0.000 0.000 0.000 6.000 
"Specimen",2
"Specimen name:",""
"Width:",6.350000,"mm"
"Thickness:",1.524000,"mm"
"Length:",12.000000,"mm"
"Diameter:",5.000000,"um"
"Inner diameter:",0.500000,"mm"
"Outer diameter:",1.000000,"mm"
"Wall thickness:",0.500000,"mm"
"Area:",19.634954,"um*um"
"Linear density:",1.000000,"den"
"Sled weight:",9.806650,"N"
"Loading span:",0.000000,"mm"
"Support span:",1.000000,"mm"
"Span ratio:","2"
"Fixture type:","3-point"
"Comment:",""
"Included"
"Time sec","Stress Pa","Cycle Count","Total Cycle Count","Repetitions Count","Strain [Exten.] %"
0.000 29.843 0.000 0.000 0.000 0.000 
0.010 35.804 0.000 0.000 0.000 0.006 
0.020 45.867 0.000 0.000 0.000 0.012 
0.030 16.218 0.000 0.000 0.000 0.018 
0.040 63.776 0.000 0.000 0.000 0.024 
0.050 133.997 0.000 0.000 0.000 0.030 
0.060 156.334 0.000 0.000 0.000 0.036 
0.070 132.210 0.000 0.000 0.000 0.042 
0.080 144.863 0.000 0.000 0.000 0.048 
0.090 144.942 0.000 0.000 0.000 0.054 
0.100 195.018 0.000 0.000 0.000 0.060 
0.110 314.025 0.000 0.000 0.000 0.066 
0.120 234.462 0.000 0.000 0.000 0.072 
0.130 305.806 0.000 0.000 0.000 0.078 
0.140 273.697 0.000 0.000 0.000 0.084 
0.150 325.025 0.000 0.000 0.000 0.090 
0.160 338.261 0.000 0.000 0.000 0.096 
0.170 345.994 0.000 0.000 0.000 0.102 
0.180 338.283 0.000 0.000 0.000 0.108 
0.190 473.468 0.000 0.000 0.000 0.114 
0.200 467.523 0.000 0.000 0.000 0.120 
0.210 471.444 0.000 0.000 0.000 0.126 
0.220 506.861 0.000 0.000 0.000 0.132 
0.230 511.089 0.000 0.000 0.000 0.138 
0.240 519.386 0.000 0.000 0.000 0.144 
0.250 579.462 0.000 0.000 0.000 0.150 
0.260 550.566 0.000 0.000 0.000 0.156 
0.270 613.232 0.000 0.000 0.000 0.162 
0.280 616.835 0.000 0.000 0.000 0.168 
0.290 617.758 0.000 0.000 0.000 0.174 
0.300 625.385 0.000 0.000 0.000 0.180 
0.310 688.075 0.000 0.000 0.000 0.186 
0.320 655.130 0.000 0.000 0.000 0.192 
0.330 757.236 0.000 0.000 0.000 0.198 
0.340 783.130 0.000 0.000 0.000 0.204 
0.350 795.126 0.000 0.000 0.000 0.210 
0.360 784.977 0.000 0.000 0.000 0.216 
0.370 778.969 0.000 0.000 0.000 0.222 
0.380 841.300 0.000 0.000 0.000 0.228 
0.390 871.483 0.000 0.000 0.000 0.234 
0.400 901.717 0.000 0.000 0.000 0.240 
0.410 972.776 0.000 0.000 0.000 0.246 
0.420 950.821 0.000 0.000 0.000 0.252 
0.430 940.369 0.000 0.000 0.000 0.258 
0.440 938.421 0.000 0.000 0.000 0.264 
0.450 1015.678 0.000 0.000 0.000 0.270 
0.460 1056.241 0.000 0.000 0.000 0.276 
0.470 1113.032 0.000 0.000 0.000 0.282 
0.480 1100.967 0.000 0.000 0.000 0.288 
0.490 1091.895 0.000 0.000 0.000 0.294 
0.501 1157.320 0.000 0.000 0.000 0.300 
0.511 1174.372 0.000 0.000 0.000 0.306 
0.521 1154.025 0.000 0.000 0.000 0.312 
0.531 1166.139 0.000 0.000 0.000 0.318 
0.541 1280.123 0.000 0.000 0.000 0.324 
0.551 1279.382 0.000 0.000 0.000 0.330 
0.561 1214.187 0.000 0.000 0.000 0.336 
0.571 1291.983 0.000 0.000 0.000 0.342 
0.581 1291.650 0.000 0.000 0.000 0.348 
0.591 1359.196 0.000 0.000 0.000 0.354 
0.601 1362.506 0.000 0.000 0.000 0.360 
0.611 1359.998 0.000 0.000 0.000 0.366 
0.621 1311.123 0.000 0.000 0.000 0.372 
0.631 1401.463 0.000 0.000 0.000 0.378 
0.641 1447.648 0.000 0.000 0.000 0.384 
0.651 1485.346 0.000 0.000 0.000 0.390 
0.661 1464.165 0.000 0.000 0.000 0.396 
0.671 1509.437 0.000 0.000 0.000 0.402 
0.681 1492.313 0.000 0.000 0.000 0.408 
0.691 1502.298 0.000 0.000 0.000 0.414 
0.701 1570.846 0.000 0.000 0.000 0.420 
0.711 1611.401 0.000 0.000 0.000 0.426 
0.721 1602.759 0.000 0.000 0.000 0.432 
0.731 1658.670 0.000 0.000 0.000 0.438 
0.741 1620.337 0.000 0.000 0.000 0.444 
0.751 1658.120 0.000 0.000 0.000 0.450 
0.761 1710.112 0.000 0.000 0.000 0.456 
0.771 1750.391 0.000 0.000 0.000 0.462 
0.781 1749.555 0.000 0.000 0.000 0.468 
0.791 1786.202 0.000 0.000 0.000 0.474 
0.801 1831.448 0.000 0.000 0.000 0.480 
0.811 1839.281 0.000 0.000 0.000 0.486 
0.821 1829.655 0.000 0.000 0.000 0.492 
0.831 1901.491 0.000 0.000 0.000 0.498 
0.841 1841.743 0.000 0.000 0.000 0.505 
0.851 1905.203 0.000 0.000 0.000 0.511 
0.861 1956.190 0.000 0.000 0.000 0.517 
0.871 1982.864 0.000 0.000 0.000 0.523 
0.881 2004.375 0.000 0.000 0.000 0.529 
0.891 1977.387 0.000 0.000 0.000 0.535 
0.901 1997.017 0.000 0.000 0.000 0.541 
0.911 2084.278 0.000 0.000 0.000 0.547 
0.921 2129.797 0.000 0.000 0.000 0.553 
0.931 2097.914 0.000 0.000 0.000 0.559 
0.941 2122.420 0.000 0.000 0.000 0.565 
0.951 2081.551 0.000 0.000 0.000 0.571 
0.961 2182.136 0.000 0.000 0.000 0.577 
0.971 2229.078 0.000 0.000 0.000 0.583 
0.981 2186.717 0.000 0.000 0.000 0.589 
0.991 2226.739 0.000 0.000 0.000 0.595 
1.001 2242.530 0.000 0.000 0.000 0.601 
1.011 2284.405 0.000 0.000 0.000 0.607 
1.021 2275.787 0.000 0.000 0.000 0.613 
1.031 2289.983 0.000 0.000 0.000 0.619 
1.041 2355.860 0.000 0.000 0.000 0.625 
1.051 2343.227 0.000 0.000 0.000 0.631 
1.061 2439.368 0.000 0.000 0.000 0.637 
1.071 2433.935 0.000 0.000 0.000 0.643 
1.081 2484.628 0.000 0.000 0.000 0.649 
1.091 2416.460 0.000 0.000 0.000 0.655 
1.101 2502.629 0.000 0.000 0.000 0.661 
1.111 2557.508 0.000 0.000 0.000 0.667 
1.121 2530.009 0.000 0.000 0.000 0.673 
1.131 2576.494 0.000 0.000 0.000 0.679 
1.141 2560.172 0.000 0.000 0.000 0.685 
1.151 2613.078 0.000 0.000 0.000 0.691 
1.161 2683.175 0.000 0.000 0.000 0.697 
1.171 2641.483 0.000 0.000 0.000 0.703 
1.181 2728.842 0.000 0.000 0.000 0.709 
1.191 2706.528 0.000 0.000 0.000 0.715 
1.201 2743.797 0.000 0.000 0.000 0.721 
1.211 2689.897 0.000 0.000 0.000 0.727 
1.221 2756.704 0.000 0.000 0.000 0.733 
1.231 2767.304 0.000 0.000 0.000 0.739 
1.241 2804.012 0.000 0.000 0.000 0.745 
1.251 2842.290 0.000 0.000 0.000 0.751 
1.261 2821.388 0.000 0.000 0.000 0.757 
1.271 2902.891 0.000 0.000 0.000 0.763 
1.281 2928.413 0.000 0.000 0.000 0.769 
1.291 2943.369 0.000 0.000 0.000 0.775 
1.301 2913.570 0.000 0.000 0.000 0.781 
1.311 3023.595 0.000 0.000 0.000 0.787 
1.321 2963.740 0.000 0.000 0.000 0.793 
1.331 2994.819 0.000 0.000 0.000 0.799 
1.341 3049.014 0.000 0.000 0.000 0.805 
1.351 2996.716 0.000 0.000 0.000 0.811 
1.361 3083.852 0.000 0.000 0.000 0.817 
1.371 3128.751 0.000 0.000 0.000 0.823 
1.381 3066.725 0.000 0.000 0.000 0.829 
1.391 3137.014 0.000 0.000 0.000 0.835 
1.401 3151.823 0.000 0.000 0.000 0.841 
1.411 3133.618 0.000 0.000 0.000 0.847 
1.421 3217.587 0.000 0.000 0.000 0.853 
1.431 3263.974 0.000 0.000 0.000 0.859 
1.441 3272.525 0.000 0.000 0.000 0.865 
1.451 3201.067 0.000 0.000 0.000 0.871 
1.461 3347.139 0.000 0.000 0.000 0.877 
1.471 3320.089 0.000 0.000 0.000 0.883 
1.481 3348.389 0.000 0.000 0.000 0.889 
1.491 3385.292 0.000 0.000 0.000 0.895 
1.502 3388.533 0.000 0.000 0.000 0.901 
1.512 3385.069 0.000 0.000 0.000 0.907 
1.522 3424.715 0.000 0.000 0.000 0.913 
1.532 3475.707 0.000 0.000 0.000 0.919 
1.542 3502.424 0.000 0.000 0.000 0.925 
1.552 3507.238 0.000 0.000 0.000 0.931 
1.562 3516.214 0.000 0.000 0.000 0.937 
1.572 3515.215 0.000 0.000 0.000 0.943 
1.582 3592.455 0.000 0.000 0.000 0.949 
1.592 3634.271 0.000 0.000 0.000 0.955 
1.602 3616.720 0.000 0.000 0.000 0.961 
1.612 3700.453 0.000 0.000 0.000 0.967 
1.622 3713.271 0.000 0.000 0.000 0.973 
1.632 3773.273 0.000 0.000 0.000 0.979 
1.642 3722.007 0.000 0.000 0.000 0.985 
1.652 3750.744 0.000 0.000 0.000 0.991 
1.662 3790.136 0.000 0.000 0.000 0.997 
1.672 3801.162 0.000 0.000 0.000 1.003 
1.682 3874.189 0.000 0.000 0.000 1.009 
1.692 3856.586 0.000 0.000 0.000 1.015 
1.702 3887.453 0.000 0.000 0.000 1.021 
1.712 3873.751 0.000 0.000 0.000 1.027 
1.722 3882.633 0.000 0.000 0.000 1.033 
1.732 3875.536 0.000 0.000 0.000 1.039 
1.742 3934.704 0.000 0.000 0.000 1.045 
1.752 3959.633 0.000 0.000 0.000 1.051 
1.762 3926.420 0.000 0.000 0.000 1.057 
1.772 4012.037 0.000 0.000 0.000 1.063 
1.782 4032.286 0.000 0.000 0.000 1.069 
1.792 4042.123 0.000 0.000 0.000 1.075 
1.802 4092.166 0.000 0.000 0.000 1.081 
1.812 4072.426 0.000 0.000 0.000 1.087 
1.822 4159.929 0.000 0.000 0.000 1.093 
1.832 4214.874 0.000 0.000 0.000 1.099 
1.842 4189.373 0.000 0.000 0.000 1.105 
1.852 4200.542 0.000 0.000 0.000 1.111 
1.862 4154.371 0.000 0.000 0.000 1.117 
1.872 4151.716 0.000 0.000 0.000 1.123 
1.882 4235.688 0.000 0.000 0.000 1.129 
1.892 4291.691 0.000 0.000 0.000 1.135 
1.902 4309.320 0.000 0.000 0.000 1.141 
1.912 4384.521 0.000 0.000 0.000 1.147 
1.922 4358.913 0.000 0.000 0.000 1.153 
1.932 4394.404 0.000 0.000 0.000 1.159 
1.942 4461.298 0.000 0.000 0.000 1.165 
1.952 4480.115 0.000 0.000 0.000 1.171 
1.962 4444.276 0.000 0.000 0.000 1.177 
1.972 4480.179 0.000 0.000 0.000 1.183 
1.982 4508.995 0.000 0.000 0.000 1.189 
1.992 4477.588 0.000 0.000 0.000 1.195 
2.002 4554.091 0.000 0.000 0.000 1.201 
2.012 4563.762 0.000 0.000 0.000 1.207 
2.022 4570.382 0.000 0.000 0.000 1.213 
2.032 4638.958 0.000 0.000 0.000 1.219 
2.042 4654.653 0.000 0.000 0.000 1.225 
2.052 4680.762 0.000 0.000 0.000 1.231 
2.062 4696.274 0.000 0.000 0.000 1.237 
2.072 4680.724 0.000 0.000 0.000 1.243 
2.082 4732.928 0.000 0.000 0.000 1.249 
2.092 4783.136 0.000 0.000 0.000 1.255 
2.102 4733.202 0.000 0.000 0.000 1.261 
2.112 4838.822 0.000 0.000 0.000 1.267 
2.122 4875.882 0.000 0.000 0.000 1.273 
2.132 4833.879 0.000 0.000 0.000 1.279 
2.142 4834.394 0.000 0.000 0.000 1.285 
2.152 4906.016 0.000 0.000 0.000 1.291 
2.162 4870.266 0.000 0.000 0.000 1.297 
2.172 4949.125 0.000 0.000 0.000 1.303 
2.182 4896.727 0.000 0.000 0.000 1.309 
2.192 5022.928 0.000 0.000 0.000 1.315 
2.202 4962.482 0.000 0.000 0.000 1.321 
2.212 5030.739 0.000 0.000 0.000 1.327 
2.222 4979.621 0.000 0.000 0.000 1.333 
2.232 5076.191 0.000 0.000 0.000 1.339 
2.242 5099.539 0.000 0.000 0.000 1.345 
2.252 5141.482 0.000 0.000 0.000 1.351 
2.262 5105.102 0.000 0.000 0.000 1.357 
2.272 5174.798 0.000 0.000 0.000 1.363 
2.282 5183.813 0.000 0.000 0.000 1.369 
2.292 5251.143 0.000 0.000 0.000 1.375 
2.302 5226.889 0.000 0.000 0.000 1.381 
2.312 5232.404 0.000 0.000 0.000 1.387 
2.322 5250.597 0.000 0.000 0.000 1.393 
2.332 5319.670 0.000 0.000 0.000 1.399 
2.342 5323.800 0.000 0.000 0.000 1.405 
2.352 5344.020 0.000 0.000 0.000 1.411 
2.362 5356.258 0.000 0.000 0.000 1.417 
2.372 5404.249 0.000 0.000 0.000 1.423 
2.382 5415.318 0.000 0.000 0.000 1.429 
2.392 5421.529 0.000 0.000 0.000 1.435 
2.402 5422.537 0.000 0.000 0.000 1.441 
2.412 5456.412 0.000 0.000 0.000 1.447 
2.422 5460.985 0.000 0.000 0.000 1.453 
2.432 5582.050 0.000 0.000 0.000 1.459 
2.442 5521.662 0.000 0.000 0.000 1.465 
2.452 5608.960 0.000 0.000 0.000 1.471 
2.462 5591.144 0.000 0.000 0.000 1.477 
2.472 5565.665 0.000 0.000 0.000 1.483 
2.482 5677.732 0.000 0.000 0.000 1.489 
2.492 5585.198 0.000 0.000 0.000 1.495 
2.503 5649.730 0.000 0.000 0.000 1.502 
2.513 5694.653 0.000 0.000 0.000 1.508 
2.523 5760.113 0.000 0.000 0.000 1.514 
2.533 5724.938 0.000 0.000 0.000 1.520 
2.543 5788.070 0.000 0.000 0.000 1.526 
2.553 5813.205 0.000 0.000 0.000 1.532 
2.563 5820.064 0.000 0.000 0.000 1.538 
2.573 5826.435 0.000 0.000 0.000 1.544 
2.583 5943.705 0.000 0.000 0.000 1.550 
2.593 5929.320 0.000 0.000 0.000 1.556 
2.603 5944.411 0.000 0.000 0.000 1.562 
2.613 5894.700 0.000 0.000 0.000 1.568 
2.623 6052.695 0.000 0.000 0.000 1.574 
2.633 6007.091 0.000 0.000 0.000 1.580 
2.643 6085.316 0.000 0.000 0.000 1.586 
2.653 6077.837 0.000 0.000 0.000 1.592 
2.663 6026.088 0.000 0.000 0.000 1.598 
2.673 6111.275 0.000 0.000 0.000 1.604 
2.683 6078.089 0.000 0.000 0.000 1.610 
2.693 6155.763 0.000 0.000 0.000 1.616 
2.703 6170.461 0.000 0.000 0.000 1.622 
2.713 6169.194 0.000 0.000 0.000 1.628 
2.723 6180.370 0.000 0.000 0.000 1.634 
2.733 6182.617 0.000 0.000 0.000 1.640 
2.743 6229.020 0.000 0.000 0.000 1.646 
2.753 6222.297 0.000 0.000 0.000 1.652 
2.763 6238.132 0.000 0.000 0.000 1.658 
2.773 6310.676 0.000 0.000 0.000 1.664 
2.783 6347.027 0.000 0.000 0.000 1.670 
2.793 6344.656 0.000 0.000 0.000 1.676 
2.803 6386.217 0.000 0.000 0.000 1.682 
2.813 6387.844 0.000 0.000 0.000 1.688 
2.823 6404.368 0.000 0.000 0.000 1.694 
2.833 6426.320 0.000 0.000 0.000 1.700 
2.843 6499.292 0.000 0.000 0.000 1.706 
2.853 6523.481 0.000 0.000 0.000 1.712 
2.863 6591.154 0.000 0.000 0.000 1.718 
2.873 6539.304 0.000 0.000 0.000 1.724 
2.883 6601.315 0.000 0.000 0.000 1.730 
2.893 6566.202 0.000 0.000 0.000 1.736 
2.903 6608.122 0.000 0.000 0.000 1.742 
2.913 6657.268 0.000 0.000 0.000 1.748 
2.923 6644.161 0.000 0.000 0.000 1.754 
2.933 6689.823 0.000 0.000 0.000 1.760 
2.943 6676.611 0.000 0.000 0.000 1.766 
2.953 6740.893 0.000 0.000 0.000 1.772 
2.963 6764.701 0.000 0.000 0.000 1.778 
2.973 6713.614 0.000 0.000 0.000 1.784 
2.983 6773.301 0.000 0.000 0.000 1.790 
2.993 6793.453 0.000 0.000 0.000 1.796 
3.003 6800.226 0.000 0.000 0.000 1.802 
3.013 6798.802 0.000 0.000 0.000 1.808 
3.023 6777.936 0.000 0.000 0.000 1.814 
3.033 6768.397 0.000 0.000 0.000 1.820 
3.043 6764.388 0.000 0.000 0.000 1.826 
3.053 6807.280 0.000 0.000 0.000 1.832 
3.063 6779.129 0.000 0.000 0.000 1.838 
3.073 6771.355 0.000 0.000 0.000 1.844 
3.083 6749.839 0.000 0.000 0.000 1.850 
3.093 6730.616 0.000 0.000 0.000 1.856 
3.103 6709.619 0.000 0.000 0.000 1.862 
3.113 6765.454 0.000 0.000 0.000 1.868 
3.123 6710.794 0.000 0.000 0.000 1.874 
3.133 6722.203 0.000 0.000 0.000 1.880 
3.143 6709.731 0.000 0.000 0.000 1.886 
3.153 6734.364 0.000 0.000 0.000 1.892 
3.163 6708.871 0.000 0.000 0.000 1.898 
3.173 6676.279 0.000 0.000 0.000 1.904 
3.183 6680.698 0.000 0.000 0.000 1.910 
3.193 6684.174 0.000 0.000 0.000 1.916 
3.203 6637.025 0.000 0.000 0.000 1.922 
3.213 6697.393 0.000 0.000 0.000 1.928 
3.223 6662.912 0.000 0.000 0.000 1.934 
3.233 6639.731 0.000 0.000 0.000 1.940 
3.243 6646.750 0.000 0.000 0.000 1.946 
3.253 6722.008 0.000 0.000 0.000 1.952 
3.263 6699.786 0.000 0.000 0.000 1.958 
3.273 6657.647 0.000 0.000 0.000 1.964 
3.283 6587.564 0.000 0.000 0.000 1.970 
3.293 6562.839 0.000 0.000 0.000 1.976 
3.303 6579.616 0.000 0.000 0.000 1.982 
3.313 6681.820 0.000 0.000 0.000 1.988 
3.323 6680.756 0.000 0.000 0.000 1.994 
3.333 6587.064 0.000 0.000 0.000 2.000 
3.343 6632.881 0.000 0.000 0.000 2.006 
3.353 6663.835 0.000 0.000 0.000 2.012 
3.363 6633.663 0.000 0.000 0.000 2.018 
3.373 6617.847 0.000 0.000 0.000 2.024 
3.383 6628.473 0.000 0.000 0.000 2.030 
3.393 6631.058 0.000 0.000 0.000 2.036 
3.403 6665.131 0.000 0.000 0.000 2.042 
3.413 6614.203 0.000 0.000 0.000 2.048 
3.423 6634.092 0.000 0.000 0.000 2.054 
3.433 6659.287 0.000 0.000 0.000 2.060 
3.443 6618.415 0.000 0.000 0.000 2.066 
3.453 6639.266 0.000 0.000 0.000 2.072 
3.463 6664.750 0.000 0.000 0.000 2.078 
3.473 6643.776 0.000 0.000 0.000 2.084 
3.483 6660.365 0.000 0.000 0.000 2.090 
3.493 6640.286 0.000 0.000 0.000 2.096 
3.504 6631.866 0.000 0.000 0.000 2.102 
3.514 6632.679 0.000 0.000 0.000 2.108 
3.524 6662.170 0.000 0.000 0.000 2.114 
3.534 6661.095 0.000 0.000 0.000 2.120 
3.544 6645.061 0.000 0.000 0.000 2.126 
3.554 6652.801 0.000 0.000 0.000 2.132 
3.564 6629.208 0.000 0.000 0.000 2.138 
3.574 6560.487 0.000 0.000 0.000 2.144 
3.584 6695.183 0.000 0.000 0.000 2.150 
3.594 6646.521 0.000 0.000 0.000 2.156 
3.604 6609.862 0.000 0.000 0.000 2.162 
3.614 6600.714 0.000 0.000 0.000 2.168 
3.624 6672.660 0.000 0.000 0.000 2.174 
3.634 6632.658 0.000 0.000 0.000 2.180 
3.644 6667.145 0.000 0.000 0.000 2.186 
3.654 6709.968 0.000 0.000 0.000 2.192 
3.664 6662.157 0.000 0.000 0.000 2.198 
3.674 6653.596 0.000 0.000 0.000 2.204 
3.684 6641.935 0.000 0.000 0.000 2.210 
3.694 6690.206 0.000 0.000 0.000 2.216 
3.704 6705.399 0.000 0.000 0.000 2.222 
3.714 6676.999 0.000 0.000 0.000 2.228 
3.724 6648.226 0.000 0.000 0.000 2.234 
3.734 6718.689 0.000 0.000 0.000 2.240 
3.744 6679.965 0.000 0.000 0.000 2.246 
3.754 6645.884 0.000 0.000 0.000 2.252 
3.764 6680.524 0.000 0.000 0.000 2.258 
3.774 6617.432 0.000 0.000 0.000 2.264 
3.784 6711.308 0.000 0.000 0.000 2.270 
3.794 6655.527 0.000 0.000 0.000 2.276 
3.804 6695.463 0.000 0.000 0.000 2.282 
3.814 6669.659 0.000 0.000 0.000 2.288 
3.824 6689.623 0.000 0.000 0.000 2.294 
3.834 6671.615 0.000 0.000 0.000 2.300 
3.844 6662.754 0.000 0.000 0.000 2.306 
3.854 6701.722 0.000 0.000 0.000 2.312 
3.864 6728.162 0.000 0.000 0.000 2.318 
3.874 6662.736 0.000 0.000 0.000 2.324 
3.884 6690.576 0.000 0.000 0.000 2.330 
3.894 6674.283 0.000 0.000 0.000 2.336 
3.904 6716.614 0.000 0.000 0.000 2.342 
3.914 6750.407 0.000 0.000 0.000 2.348 
3.924 6686.749 0.000 0.000 0.000 2.354 
3.934 6716.443 0.000 0.000 0.000 2.360 
3.944 6728.965 0.000 0.000 0.000 2.366 
3.954 6674.200 0.000 0.000 0.000 2.372 
3.964 6691.306 0.000 0.000 0.000 2.378 
3.974 6624.983 0.000 0.000 0.000 2.384 
3.984 6706.400 0.000 0.000 0.000 2.390 
3.994 6746.188 0.000 0.000 0.000 2.396 
4.004 6712.814 0.000 0.000 0.000 2.402 
4.014 6708.413 0.000 0.000 0.000 2.408 
4.024 6663.858 0.000 0.000 0.000 2.414 
4.034 6701.913 0.000 0.000 0.000 2.420 
4.044 6717.491 0.000 0.000 0.000 2.426 
4.054 6742.882 0.000 0.000 0.000 2.432 
4.064 6715.729 0.000 0.000 0.000 2.438 
4.074 6670.760 0.000 0.000 0.000 2.444 
4.084 6696.081 0.000 0.000 0.000 2.450 
4.094 6712.541 0.000 0.000 0.000 2.456 
4.104 6681.984 0.000 0.000 0.000 2.462 
4.114 6691.574 0.000 0.000 0.000 2.468 
4.124 6713.383 0.000 0.000 0.000 2.474 
4.134 6669.712 0.000 0.000 0.000 2.480 
4.144 6697.054 0.000 0.000 0.000 2.486 
4.154 6677.095 0.000 0.000 0.000 2.492 
4.164 6718.407 0.000 0.000 0.000 2.498 
4.174 6639.205 0.000 0.000 0.000 2.505 
4.184 6733.146 0.000 0.000 0.000 2.511 
4.194 6684.470 0.000 0.000 0.000 2.517 
4.204 6658.714 0.000 0.000 0.000 2.523 
4.214 6688.559 0.000 0.000 0.000 2.529 
4.224 6743.541 0.000 0.000 0.000 2.535 
4.234 6735.885 0.000 0.000 0.000 2.541 
4.244 6635.618 0.000 0.000 0.000 2.547 
4.254 6715.794 0.000 0.000 0.000 2.553 
4.264 6681.071 0.000 0.000 0.000 2.559 
4.274 6707.311 0.000 0.000 0.000 2.565 
4.284 6730.140 0.000 0.000 0.000 2.571 
4.294 6693.691 0.000 0.000 0.000 2.577 
4.304 6740.359 0.000 0.000 0.000 2.583 
4.314 6684.687 0.000 0.000 0.000 2.589 
4.324 6702.159 0.000 0.000 0.000 2.595 
4.334 6676.089 0.000 0.000 0.000 2.601 
4.344 6708.645 0.000 0.000 0.000 2.607 
4.354 6732.286 0.000 0.000 0.000 2.613 
4.364 6711.097 0.000 0.000 0.000 2.619 
4.374 6719.522 0.000 0.000 0.000 2.625 
4.384 6706.106 0.000 0.000 0.000 2.631 
4.394 6750.763 0.000 0.000 0.000 2.637 
4.404 6759.355 0.000 0.000 0.000 2.643 
4.414 6671.926 0.000 0.000 0.000 2.649 
4.424 6756.349 0.000 0.000 0.000 2.655 
4.434 6747.802 0.000 0.000 0.000 2.661 
4.444 6666.217 0.000 0.000 0.000 2.667 
4.454 6684.776 0.000 0.000 0.000 2.673 
4.464 6668.277 0.000 0.000 0.000 2.679 
4.474 6687.268 0.000 0.000 0.000 2.685 
4.484 6759.257 0.000 0.000 0.000 2.691 
4.494 6797.179 0.000 0.000 0.000 2.697 
4.505 6755.610 0.000 0.000 0.000 2.703 
4.515 6762.253 0.000 0.000 0.000 2.709 
4.525 6736.797 0.000 0.000 0.000 2.715 
4.535 6683.960 0.000 0.000 0.000 2.721 
4.545 6734.749 0.000 0.000 0.000 2.727 
4.555 6779.598 0.000 0.000 0.000 2.733 
4.565 6761.875 0.000 0.000 0.000 2.739 
4.575 6677.914 0.000 0.000 0.000 2.745 
4.585 6710.641 0.000 0.000 0.000 2.751 
4.595 6663.462 0.000 0.000 0.000 2.757 
4.605 6721.905 0.000 0.000 0.000 2.763 
4.615 6676.322 0.000 0.000 0.000 2.769 
4.625 6717.909 0.000 0.000 0.000 2.775 
4.635 6729.981 0.000 0.000 0.000 2.781 
4.645 6663.144 0.000 0.000 0.000 2.787 
4.655 6695.492 0.000 0.000 0.000 2.793 
4.665 6696.625 0.000 0.000 0.000 2.799 
4.675 6730.363 0.000 0.000 0.000 2.805 
4.685 6717.717 0.000 0.000 0.000 2.811 
4.695 6742.874 0.000 0.000 0.000 2.817 
4.705 6733.512 0.000 0.000 0.000 2.823 
4.715 6711.904 0.000 0.000 0.000 2.829 
4.725 6704.586 0.000 0.000 0.000 2.835 
4.735 6764.798 0.000 0.000 0.000 2.841 
4.745 6789.514 0.000 0.000 0.000 2.847 
4.755 6717.305 0.000 0.000 0.000 2.853 
4.765 6710.401 0.000 0.000 0.000 2.859 
4.775 6720.354 0.000 0.000 0.000 2.865 
4.785 6705.252 0.000 0.000 0.000 2.871 
4.795 6677.946 0.000 0.000 0.000 2.877 
4.805 6726.246 0.000 0.000 0.000 2.883 
4.815 6710.021 0.000 0.000 0.000 2.889 
4.825 6705.919 0.000 0.000 0.000 2.895 
4.835 6731.745 0.000 0.000 0.000 2.901 
4.845 6760.898 0.000 0.000 0.000 2.907 
4.855 6699.153 0.000 0.000 0.000 2.913 
4.865 6740.100 0.000 0.000 0.000 2.919 
4.875 6715.296 0.000 0.000 0.000 2.925 
4.885 6727.517 0.000 0.000 0.000 2.931 
4.895 6689.096 0.000 0.000 0.000 2.937 
4.905 6758.989 0.000 0.000 0.000 2.943 
4.915 6656.823 0.000 0.000 0.000 2.949 
4.925 6721.410 0.000 0.000 0.000 2.955 
4.935 6739.416 0.000 0.000 0.000 2.961 
4.945 6725.510 0.000 0.000 0.000 2.967 
4.955 6771.010 0.000 0.000 0.000 2.973 
4.965 6692.653 0.000 0.000 0.000 2.979 
4.975 6784.018 0.000 0.000 0.000 2.985 
4.985 6703.130 0.000 0.000 0.000 2.991 
4.995 6742.702 0.000 0.000 0.000 2.997 
5.005 6695.933 0.000 0.000 0.000 3.003 
5.015 6721.448 0.000 0.000 0.000 3.009 
5.025 6733.192 0.000 0.000 0.000 3.015 
5.035 6791.605 0.000 0.000 0.000 3.021 
5.045 6734.138 0.000 0.000 0.000 3.027 
5.055 6743.776 0.000 0.000 0.000 3.033 
5.065 6781.525 0.000 0.000 0.000 3.039 
5.075 6726.871 0.000 0.000 0.000 3.045 
5.085 6774.011 0.000 0.000 0.000 3.051 
5.095 6693.202 0.000 0.000 0.000 3.057 
5.105 6762.467 0.000 0.000 0.000 3.063 
5.115 6757.214 0.000 0.000 0.000 3.069 
5.125 6683.824 0.000 0.000 0.000 3.075 
5.135 6771.819 0.000 0.000 0.000 3.081 
5.145 6744.417 0.000 0.000 0.000 3.087 
5.155 6746.815 0.000 0.000 0.000 3.093 
5.165 6676.465 0.000 0.000 0.000 3.099 
5.175 6746.932 0.000 0.000 0.000 3.105 
5.185 6698.979 0.000 0.000 0.000 3.111 
5.195 6708.876 0.000 0.000 0.000 3.117 
5.205 6672.281 0.000 0.000 0.000 3.123 
5.215 6797.116 0.000 0.000 0.000 3.129 
5.225 6718.300 0.000 0.000 0.000 3.135 
5.235 6742.031 0.000 0.000 0.000 3.141 
5.245 6686.636 0.000 0.000 0.000 3.147 
5.255 6683.703 0.000 0.000 0.000 3.153 
5.265 6747.308 0.000 0.000 0.000 3.159 
5.275 6740.265 0.000 0.000 0.000 3.165 
5.285 6685.251 0.000 0.000 0.000 3.171 
5.295 6718.754 0.000 0.000 0.000 3.177 
5.305 6739.854 0.000 0.000 0.000 3.183 
5.315 6702.366 0.000 0.000 0.000 3.189 
5.325 6772.840 0.000 0.000 0.000 3.195 
5.335 6748.937 0.000 0.000 0.000 3.201 
5.345 6730.565 0.000 0.000 0.000 3.207 
5.355 6739.645 0.000 0.000 0.000 3.213 
5.365 6798.035 0.000 0.000 0.000 3.219 
5.375 6769.537 0.000 0.000 0.000 3.225 
5.385 6706.382 0.000 0.000 0.000 3.231 
5.395 6716.815 0.000 0.000 0.000 3.237 
5.405 6718.504 0.000 0.000 0.000 3.243 
5.415 6746.113 0.000 0.000 0.000 3.249 
5.425 6717.119 0.000 0.000 0.000 3.255 
5.435 6758.787 0.000 0.000 0.000 3.261 
5.445 6728.657 0.000 0.000 0.000 3.267 
5.455 6730.597 0.000 0.000 0.000 3.273 
5.465 6664.650 0.000 0.000 0.000 3.279 
5.475 6735.505 0.000 0.000 0.000 3.285 
5.485 6746.067 0.000 0.000 0.000 3.291 
5.495 6731.642 0.000 0.000 0.000 3.297 
5.506 6694.130 0.000 0.000 0.000 3.303 
5.516 6704.161 0.000 0.000 0.000 3.309 
5.526 6694.858 0.000 0.000 0.000 3.315 
5.536 6684.388 0.000 0.000 0.000 3.321 
5.546 6692.392 0.000 0.000 0.000 3.327 
5.556 6735.585 0.000 0.000 0.000 3.333 
5.566 6763.035 0.000 0.000 0.000 3.339 
5.576 6709.371 0.000 0.000 0.000 3.345 
5.586 6679.946 0.000 0.000 0.000 3.351 
5.596 6733.725 0.000 0.000 0.000 3.357 
5.606 6717.324 0.000 0.000 0.000 3.363 
5.616 6676.672 0.000 0.000 0.000 3.369 
5.626 6731.289 0.000 0.000 0.000 3.375 
5.636 6683.808 0.000 0.000 0.000 3.381 
5.646 6671.641 0.000 0.000 0.000 3.387 
5.656 6677.200 0.000 0.000 0.000 3.393 
5.666 6640.580 0.000 0.000 0.000 3.399 
5.676 6710.960 0.000 0.000 0.000 3.405 
5.686 6694.027 0.000 0.000 0.000 3.411 
5.696 6697.622 0.000 0.000 0.000 3.417 
5.706 6695.827 0.000 0.000 0.000 3.423 
5.716 6738.674 0.000 0.000 0.000 3.429 
5.726 6743.969 0.000 0.000 0.000 3.435 
5.736 6749.595 0.000 0.000 0.000 3.441 
5.746 6791.078 0.000 0.000 0.000 3.447 
5.756 6722.162 0.000 0.000 0.000 3.453 
5.766 6683.824 0.000 0.000 0.000 3.459 
5.776 6684.461 0.000 0.000 0.000 3.465 
5.786 6660.981 0.000 0.000 0.000 3.471 
5.796 6735.108 0.000 0.000 0.000 3.477 
5.806 6631.217 0.000 0.000 0.000 3.483 
5.816 6703.256 0.000 0.000 0.000 3.489 
5.826 6642.084 0.000 0.000 0.000 3.495 
5.836 6692.572 0.000 0.000 0.000 3.502 
5.846 6691.610 0.000 0.000 0.000 3.508 
5.856 6652.897 0.000 0.000 0.000 3.514 
5.866 6712.951 0.000 0.000 0.000 3.520 
5.876 6710.233 0.000 0.000 0.000 3.526 
5.886 6707.745 0.000 0.000 0.000 3.532 
5.896 6694.402 0.000 0.000 0.000 3.538 
5.906 6683.917 0.000 0.000 0.000 3.544 
5.916 6671.367 0.000 0.000 0.000 3.550 
5.926 6736.344 0.000 0.000 0.000 3.556 
5.936 6708.116 0.000 0.000 0.000 3.562 
5.946 6686.219 0.000 0.000 0.000 3.568 
5.956 6694.818 0.000 0.000 0.000 3.574 
5.966 6696.025 0.000 0.000 0.000 3.580 
5.976 6707.796 0.000 0.000 0.000 3.586 
5.986 6667.425 0.000 0.000 0.000 3.592 
5.996 6687.665 0.000 0.000 0.000 3.598 
6.006 6657.049 0.000 0.000 0.000 3.604 
6.016 6736.109 0.000 0.000 0.000 3.610 
6.026 6738.390 0.000 0.000 0.000 3.616 
6.036 6747.364 0.000 0.000 0.000 3.622 
6.046 6700.071 0.000 0.000 0.000 3.628 
6.056 6679.333 0.000 0.000 0.000 3.634 
6.066 6656.947 0.000 0.000 0.000 3.640 
6.076 6683.485 0.000 0.000 0.000 3.646 
6.086 6698.928 0.000 0.000 0.000 3.652 
6.096 6662.220 0.000 0.000 0.000 3.658 
6.106 6619.749 0.000 0.000 0.000 3.664 
6.116 6638.678 0.000 0.000 0.000 3.670 
6.126 6692.204 0.000 0.000 0.000 3.676 
6.136 6689.874 0.000 0.000 0.000 3.682 
6.146 6615.751 0.000 0.000 0.000 3.688 
6.156 6675.612 0.000 0.000 0.000 3.694 
6.166 6662.111 0.000 0.000 0.000 3.700 
6.176 6657.138 0.000 0.000 0.000 3.706 
6.186 6628.322 0.000 0.000 0.000 3.712 
6.196 6694.262 0.000 0.000 0.000 3.718 
6.206 6697.491 0.000 0.000 0.000 3.724 
6.216 6725.708 0.000 0.000 0.000 3.730 
6.226 6708.168 0.000 0.000 0.000 3.736 
6.236 6650.981 0.000 0.000 0.000 3.742 
6.246 6633.194 0.000 0.000 0.000 3.748 
6.256 6675.723 0.000 0.000 0.000 3.754 
6.266 6662.296 0.000 0.000 0.000 3.760 
6.276 6700.558 0.000 0.000 0.000 3.766 
6.286 6696.660 0.000 0.000 0.000 3.772 
6.296 6645.384 0.000 0.000 0.000 3.778 
6.306 6692.192 0.000 0.000 0.000 3.784 
6.316 6578.038 0.000 0.000 0.000 3.790 
6.326 6697.441 0.000 0.000 0.000 3.796 
6.336 6690.537 0.000 0.000 0.000 3.802 
6.346 6661.053 0.000 0.000 0.000 3.808 
6.356 6694.406 0.000 0.000 0.000 3.814 
6.366 6670.548 0.000 0.000 0.000 3.820 
6.376 6661.827 0.000 0.000 0.000 3.826 
6.386 6627.923 0.000 0.000 0.000 3.832 
6.396 6720.518 0.000 0.000 0.000 3.838 
6.406 6690.270 0.000 0.000 0.000 3.844 
6.416 6699.090 0.000 0.000 0.000 3.850 
6.426 6729.398 0.000 0.000 0.000 3.856 
6.436 6633.973 0.000 0.000 0.000 3.862 
6.446 6690.332 0.000 0.000 0.000 3.868 
6.456 6655.072 0.000 0.000 0.000 3.874 
6.466 6665.750 0.000 0.000 0.000 3.880 
6.476 6689.038 0.000 0.000 0.000 3.886 
6.486 6706.103 0.000 0.000 0.000 3.892 
6.496 6600.019 0.000 0.000 0.000 3.898 
6.507 6665.335 0.000 0.000 0.000 3.904 
6.517 6646.309 0.000 0.000 0.000 3.910 
6.527 6614.697 0.000 0.000 0.000 3.916 
6.537 6635.553 0.000 0.000 0.000 3.922 
6.547 6642.808 0.000 0.000 0.000 3.928 
6.557 6657.618 0.000 0.000 0.000 3.934 
6.567 6611.651 0.000 0.000 0.000 3.940 
6.577 6691.668 0.000 0.000 0.000 3.946 
6.587 6580.435 0.000 0.000 0.000 3.952 
6.597 6648.767 0.000 0.000 0.000 3.958 
6.607 6627.577 0.000 0.000 0.000 3.964 
6.617 6622.639 0.000 0.000 0.000 3.970 
6.627 6664.364 0.000 0.000 0.000 3.976 
6.637 6661.818 0.000 0.000 0.000 3.982 
6.647 6636.590 0.000 0.000 0.000 3.988 
6.657 6677.563 0.000 0.000 0.000 3.994 
6.667 6657.730 0.000 0.000 0.000 4.000 
6.677 6643.755 0.000 0.000 0.000 4.006 
6.687 6614.541 0.000 0.000 0.000 4.012 
6.697 6600.982 0.000 0.000 0.000 4.018 
6.707 6669.177 0.000 0.000 0.000 4.024 
6.717 6656.979 0.000 0.000 0.000 4.030 
6.727 6646.183 0.000 0.000 0.000 4.036 
6.737 6558.947 0.000 0.000 0.000 4.042 
6.747 6591.270 0.000 0.000 0.000 4.048 
6.757 6620.545 0.000 0.000 0.000 4.054 
6.767 6560.457 0.000 0.000 0.000 4.060 
6.777 6572.242 0.000 0.000 0.000 4.066 
6.787 6604.777 0.000 0.000 0.000 4.072 
6.797 6638.125 0.000 0.000 0.000 4.078 
6.807 6629.464 0.000 0.000 0.000 4.084 
6.817 6654.987 0.000 0.000 0.000 4.090 
6.827 6603.366 0.000 0.000 0.000 4.096 
6.837 6648.753 0.000 0.000 0.000 4.102 
6.847 6626.496 0.000 0.000 0.000 4.108 
6.857 6617.854 0.000 0.000 0.000 4.114 
6.867 6659.153 0.000 0.000 0.000 4.120 
6.877 6600.226 0.000 0.000 0.000 4.126 
6.887 6618.079 0.000 0.000 0.000 4.132 
6.897 6610.879 0.000 0.000 0.000 4.138 
6.907 6564.305 0.000 0.000 0.000 4.144 
6.917 6578.846 0.000 0.000 0.000 4.150 
6.927 6655.003 0.000 0.000 0.000 4.156 
6.937 6560.640 0.000 0.000 0.000 4.162 
6.947 6596.557 0.000 0.000 0.000 4.168 
6.957 6597.050 0.000 0.000 0.000 4.174 
6.967 6589.519 0.000 0.000 0.000 4.180 
6.977 6585.319 0.000 0.000 0.000 4.186 
6.987 6606.962 0.000 0.000 0.000 4.192 
6.997 6681.745 0.000 0.000 0.000 4.198 
7.007 6608.981 0.000 0.000 0.000 4.204 
7.017 6539.190 0.000 0.000 0.000 4.210 
7.027 6631.736 0.000 0.000 0.000 4.216 
7.037 6567.285 0.000 0.000 0.000 4.222 
7.047 6625.571 0.000 0.000 0.000 4.228 
7.057 6619.600 0.000 0.000 0.000 4.234 
7.067 6569.433 0.000 0.000 0.000 4.240 
7.077 6629.517 0.000 0.000 0.000 4.246 
7.087 6574.948 0.000 0.000 0.000 4.252 
7.097 6582.463 0.000 0.000 0.000 4.258 
7.107 6625.869 0.000 0.000 0.000 4.264 
7.117 6653.314 0.000 0.000 0.000 4.270 
7.127 6603.917 0.000 0.000 0.000 4.276 
7.137 6615.241 0.000 0.000 0.000 4.282 
7.147 6608.733 0.000 0.000 0.000 4.288 
7.157 6547.096 0.000 0.000 0.000 4.294 
7.167 6528.462 0.000 0.000 0.000 4.300 
7.177 6555.485 0.000 0.000 0.000 4.306 
7.187 6590.195 0.000 0.000 0.000 4.312 
7.197 6581.490 0.000 0.000 0.000 4.318 
7.207 6530.878 0.000 0.000 0.000 4.324 
7.217 6639.747 0.000 0.000 0.000 4.330 
7.227 6625.744 0.000 0.000 0.000 4.336 
7.237 6589.542 0.000 0.000 0.000 4.342 
7.247 6580.586 0.000 0.000 0.000 4.348 
7.257 6546.577 0.000 0.000 0.000 4.354 
7.267 6588.827 0.000 0.000 0.000 4.360 
7.277 6579.754 0.000 0.000 0.000 4.366 
7.287 6601.950 0.000 0.000 0.000 4.372 
7.297 6600.170 0.000 0.000 0.000 4.378 
7.307 6579.919 0.000 0.000 0.000 4.384 
7.317 6505.783 0.000 0.000 0.000 4.390 
7.327 6575.410 0.000 0.000 0.000 4.396 
7.337 6537.851 0.000 0.000 0.000 4.402 
7.347 6609.263 0.000 0.000 0.000 4.408 
7.357 6500.358 0.000 0.000 0.000 4.414 
7.367 6539.779 0.000 0.000 0.000 4.420 
7.377 6499.920 0.000 0.000 0.000 4.426 
7.387 6550.212 0.000 0.000 0.000 4.432 
7.397 6529.937 0.000 0.000 0.000 4.438 
7.407 6606.329 0.000 0.000 0.000 4.444 
7.417 6570.868 0.000 0.000 0.000 4.450 
7.427 6482.008 0.000 0.000 0.000 4.456 
7.437 6614.663 0.000 0.000 0.000 4.462 
7.447 6483.503 0.000 0.000 0.000 4.468 
7.457 6542.766 0.000 0.000 0.000 4.474 
7.467 6551.599 0.000 0.000 0.000 4.480 
7.477 6534.629 0.000 0.000 0.000 4.486 
7.487 6543.459 0.000 0.000 0.000 4.492 
7.497 6538.166 0.000 0.000 0.000 4.498 
7.508 6545.334 0.000 0.000 0.000 4.505 
7.518 6617.127 0.000 0.000 0.000 4.511 
7.528 6443.059 0.000 0.000 0.000 4.517 
7.538 6507.125 0.000 0.000 0.000 4.523 
7.548 6537.482 0.000 0.000 0.000 4.529 
7.558 6552.523 0.000 0.000 0.000 4.535 
7.568 6520.188 0.000 0.000 0.000 4.541 
7.578 6603.123 0.000 0.000 0.000 4.547 
7.588 6474.555 0.000 0.000 0.000 4.553 
7.598 6482.596 0.000 0.000 0.000 4.559 
7.608 6509.222 0.000 0.000 0.000 4.565 
7.618 6558.836 0.000 0.000 0.000 4.571 
7.628 6521.685 0.000 0.000 0.000 4.577 
7.638 6578.854 0.000 0.000 0.000 4.583 
7.648 6514.032 0.000 0.000 0.000 4.589 
7.658 6503.017 0.000 0.000 0.000 4.595 
7.668 6570.206 0.000 0.000 0.000 4.601 
7.678 6505.751 0.000 0.000 0.000 4.607 
7.688 6454.247 0.000 0.000 0.000 4.613 
7.698 6470.207 0.000 0.000 0.000 4.619 
7.708 6449.361 0.000 0.000 0.000 4.625 
7.718 6485.753 0.000 0.000 0.000 4.631 
7.728 6508.739 0.000 0.000 0.000 4.637 
7.738 6495.838 0.000 0.000 0.000 4.643 
7.748 6498.229 0.000 0.000 0.000 4.649 
7.758 6491.329 0.000 0.000 0.000 4.655 
7.768 6409.789 0.000 0.000 0.000 4.661 
7.778 6474.573 0.000 0.000 0.000 4.667 
7.788 6463.688 0.000 0.000 0.000 4.673 
7.798 6594.442 0.000 0.000 0.000 4.679 
7.808 6520.167 0.000 0.000 0.000 4.685 
7.818 6498.141 0.000 0.000 0.000 4.691 
7.828 6465.378 0.000 0.000 0.000 4.697 
7.838 6413.035 0.000 0.000 0.000 4.703 
7.848 6448.912 0.000 0.000 0.000 4.709 
7.858 6446.352 0.000 0.000 0.000 4.715 
7.868 6422.910 0.000 0.000 0.000 4.721 
7.878 6447.883 0.000 0.000 0.000 4.727 
7.888 6464.867 0.000 0.000 0.000 4.733 
7.898 6464.968 0.000 0.000 0.000 4.739 
7.908 6399.217 0.000 0.000 0.000 4.745 
7.918 6465.568 0.000 0.000 0.000 4.751 
7.928 6449.158 0.000 0.000 0.000 4.757 
7.938 6431.322 0.000 0.000 0.000 4.763 
7.948 6500.030 0.000 0.000 0.000 4.769 
7.958 6488.414 0.000 0.000 0.000 4.775 
7.968 6449.150 0.000 0.000 0.000 4.781 
7.978 6465.599 0.000 0.000 0.000 4.787 
7.988 6440.046 0.000 0.000 0.000 4.793 
7.998 6460.725 0.000 0.000 0.000 4.799 
8.008 6446.103 0.000 0.000 0.000 4.805 
8.018 6474.963 0.000 0.000 0.000 4.811 
8.028 6499.124 0.000 0.000 0.000 4.817 
8.038 6445.300 0.000 0.000 0.000 4.823 
8.048 6438.033 0.000 0.000 0.000 4.829 
8.058 6435.937 0.000 0.000 0.000 4.835 
8.068 6399.208 0.000 0.000 0.000 4.841 
8.078 6444.240 0.000 0.000 0.000 4.847 
8.088 6442.260 0.000 0.000 0.000 4.853 
8.098 6437.938 0.000 0.000 0.000 4.859 
8.108 6443.572 0.000 0.000 0.000 4.865 
8.118 6386.544 0.000 0.000 0.000 4.871 
8.128 6417.143 0.000 0.000 0.000 4.877 
8.138 6444.414 0.000 0.000 0.000 4.883 
8.148 6412.806 0.000 0.000 0.000 4.889 
8.158 6423.895 0.000 0.000 0.000 4.895 
8.168 6393.073 0.000 0.000 0.000 4.901 
8.178 6427.258 0.000 0.000 0.000 4.907 
8.188 6388.307 0.000 0.000 0.000 4.913 
8.198 6423.630 0.000 0.000 0.000 4.919 
8.208 6355.293 0.000 0.000 0.000 4.925 
8.218 6408.976 0.000 0.000 0.000 4.931 
8.228 6390.092 0.000 0.000 0.000 4.937 
8.238 6446.872 0.000 0.000 0.000 4.943 
8.248 6394.280 0.000 0.000 0.000 4.949 
8.258 6480.150 0.000 0.000 0.000 4.955 
8.268 6400.730 0.000 0.000 0.000 4.961 
8.278 6325.137 0.000 0.000 0.000 4.967 
8.288 6362.330 0.000 0.000 0.000 4.973 
8.298 6375.564 0.000 0.000 0.000 4.979 
8.308 6398.858 0.000 0.000 0.000 4.985 
8.318 6400.199 0.000 0.000 0.000 4.991 
8.328 6412.697 0.000 0.000 0.000 4.997 
8.338 6389.920 0.000 0.000 0.000 5.003 
8.348 6386.788 0.000 0.000 0.000 5.009 
8.358 6384.147 0.000 0.000 0.000 5.015 
8.368 6377.102 0.000 0.000 0.000 5.021 
8.378 6395.410 0.000 0.000 0.000 5.027 
8.388 6354.853 0.000 0.000 0.000 5.033 
8.398 6345.849 0.000 0.000 0.000 5.039 
8.408 6319.579 0.000 0.000 0.000 5.045 
8.418 6371.915 0.000 0.000 0.000 5.051 
8.428 6402.556 0.000 0.000 0.000 5.057 
8.438 6367.442 0.000 0.000 0.000 5.063 
8.448 6331.219 0.000 0.000 0.000 5.069 
8.458 6347.328 0.000 0.000 0.000 5.075 
8.468 6316.425 0.000 0.000 0.000 5.081 
8.478 6348.345 0.000 0.000 0.000 5.087 
8.488 6335.663 0.000 0.000 0.000 5.093 
8.498 6334.639 0.000 0.000 0.000 5.099 
8.509 6333.506 0.000 0.000 0.000 5.105 
8.519 6339.005 0.000 0.000 0.000 5.111 
8.529 6316.504 0.000 0.000 0.000 5.117 
8.539 6276.415 0.000 0.000 0.000 5.123 
8.549 6326.988 0.000 0.000 0.000 5.129 
8.559 6332.400 0.000 0.000 0.000 5.135 
8.569 6337.818 0.000 0.000 0.000 5.141 
8.579 6332.859 0.000 0.000 0.000 5.147 
8.589 6304.745 0.000 0.000 0.000 5.153 
8.599 6298.477 0.000 0.000 0.000 5.159 
8.609 6368.770 0.000 0.000 0.000 5.165 
8.619 6282.434 0.000 0.000 0.000 5.171 
8.629 6338.470 0.000 0.000 0.000 5.177 
8.639 6278.407 0.000 0.000 0.000 5.183 
8.649 6275.928 0.000 0.000 0.000 5.189 
8.659 6255.705 0.000 0.000 0.000 5.195 
8.669 6334.952 0.000 0.000 0.000 5.201 
8.679 6289.954 0.000 0.000 0.000 5.207 
8.689 6278.821 0.000 0.000 0.000 5.213 
8.699 6344.467 0.000 0.000 0.000 5.219 
8.709 6290.960 0.000 0.000 0.000 5.225 
8.719 6253.083 0.000 0.000 0.000 5.231 
8.729 6309.377 0.000 0.000 0.000 5.237 
8.739 6299.055 0.000 0.000 0.000 5.243 
8.749 6290.490 0.000 0.000 0.000 5.249 
8.759 6315.028 0.000 0.000 0.000 5.255 
8.769 6259.922 0.000 0.000 0.000 5.261 
8.779 6219.810 0.000 0.000 0.000 5.267 
8.789 6276.245 0.000 0.000 0.000 5.273 
8.799 6263.513 0.000 0.000 0.000 5.279 
8.809 6281.133 0.000 0.000 0.000 5.285 
8.819 6273.571 0.000 0.000 0.000 5.291 
8.829 6249.509 0.000 0.000 0.000 5.297 
8.839 6281.921 0.000 0.000 0.000 5.303 
8.849 6238.949 0.000 0.000 0.000 5.309 
8.859 6283.440 0.000 0.000 0.000 5.315 
8.869 6235.712 0.000 0.000 0.000 5.321 
8.879 6241.003 0.000 0.000 0.000 5.327 
8.889 6183.694 0.000 0.000 0.000 5.333 
8.899 6254.341 0.000 0.000 0.000 5.339 
8.909 6192.533 0.000 0.000 0.000 5.345 
8.919 6238.759 0.000 0.000 0.000 5.351 
8.929 6270.134 0.000 0.000 0.000 5.357 
8.939 6217.289 0.000 0.000 0.000 5.363 
8.949 6264.231 0.000 0.000 0.000 5.369 
8.959 6274.722 0.000 0.000 0.000 5.375 
8.969 6233.435 0.000 0.000 0.000 5.381 
8.979 6258.439 0.000 0.000 0.000 5.387 
8.989 6256.146 0.000 0.000 0.000 5.393 
8.999 6260.545 0.000 0.000 0.000 5.399 
9.009 6226.015 0.000 0.000 0.000 5.405 
9.019 6184.325 0.000 0.000 0.000 5.411 
9.029 6147.876 0.000 0.000 0.000 5.417 
9.039 6194.771 0.000 0.000 0.000 5.423 
9.049 6196.972 0.000 0.000 0.000 5.429 
9.059 6213.692 0.000 0.000 0.000 5.435 
9.069 6188.202 0.000 0.000 0.000 5.441 
9.079 6222.275 0.000 0.000 0.000 5.447 
9.089 6230.566 0.000 0.000 0.000 5.453 
9.099 6197.341 0.000 0.000 0.000 5.459 
9.109 6188.323 0.000 0.000 0.000 5.465 
9.119 6171.094 0.000 0.000 0.000 5.471 
9.129 6162.540 0.000 0.000 0.000 5.477 
9.139 6189.877 0.000 0.000 0.000 5.483 
9.149 6182.967 0.000 0.000 0.000 5.489 
9.159 6160.035 0.000 0.000 0.000 5.495 
9.169 6179.268 0.000 0.000 0.000 5.502 
9.179 6151.939 0.000 0.000 0.000 5.508 
9.189 6225.050 0.000 0.000 0.000 5.514 
9.199 6145.822 0.000 0.000 0.000 5.520 
9.209 6176.297 0.000 0.000 0.000 5.526 
9.219 6153.752 0.000 0.000 0.000 5.532 
9.229 6123.257 0.000 0.000 0.000 5.538 
9.239 6218.952 0.000 0.000 0.000 5.544 
9.249 6138.019 0.000 0.000 0.000 5.550 
9.259 6190.906 0.000 0.000 0.000 5.556 
9.269 6179.063 0.000 0.000 0.000 5.562 
9.279 6158.617 0.000 0.000 0.000 5.568 
9.289 6138.354 0.000 0.000 0.000 5.574 
9.299 6128.836 0.000 0.000 0.000 5.580 
9.309 6144.275 0.000 0.000 0.000 5.586 
9.319 6148.621 0.000 0.000 0.000 5.592 
9.329 6106.186 0.000 0.000 0.000 5.598 
9.339 6103.075 0.000 0.000 0.000 5.604 
9.349 6143.309 0.000 0.000 0.000 5.610 
9.359 6120.153 0.000 0.000 0.000 5.616 
9.369 6123.210 0.000 0.000 0.000 5.622 
9.379 6160.621 0.000 0.000 0.000 5.628 
9.389 6131.409 0.000 0.000 0.000 5.634 
9.399 6060.592 0.000 0.000 0.000 5.640 
9.409 6205.964 0.000 0.000 0.000 5.646 
9.419 6105.088 0.000 0.000 0.000 5.652 
9.429 6090.571 0.000 0.000 0.000 5.658 
9.439 6103.890 0.000 0.000 0.000 5.664 
9.449 6051.946 0.000 0.000 0.000 5.670 
9.459 6172.799 0.000 0.000 0.000 5.676 
9.469 6149.391 0.000 0.000 0.000 5.682 
9.479 6119.461 0.000 0.000 0.000 5.688 
9.489 6151.907 0.000 0.000 0.000 5.694 
9.499 6111.623 0.000 0.000 0.000 5.700 
9.510 6123.012 0.000 0.000 0.000 5.706 
9.520 6054.677 0.000 0.000 0.000 5.712 
9.530 6100.350 0.000 0.000 0.000 5.718 
9.540 6079.824 0.000 0.000 0.000 5.724 
9.550 6046.659 0.000 0.000 0.000 5.730 
9.560 6068.192 0.000 0.000 0.000 5.736 
9.570 6024.492 0.000 0.000 0.000 5.742 
9.580 6066.511 0.000 0.000 0.000 5.748 
9.590 6076.441 0.000 0.000 0.000 5.754 
9.600 6044.549 0.000 0.000 0.000 5.760 
9.610 6067.388 0.000 0.000 0.000 5.766 
9.620 6057.689 0.000 0.000 0.000 5.772 
9.630 6041.467 0.000 0.000 0.000 5.778 
9.640 6032.791 0.000 0.000 0.000 5.784 
9.650 6042.362 0.000 0.000 0.000 5.790 
9.660 6051.521 0.000 0.000 0.000 5.796 
9.670 6039.958 0.000 0.000 0.000 5.802 
9.680 6036.538 0.000 0.000 0.000 5.808 
9.690 6081.669 0.000 0.000 0.000 5.814 
9.700 6031.672 0.000 0.000 0.000 5.820 
9.710 6032.481 0.000 0.000 0.000 5.826 
9.720 6073.069 0.000 0.000 0.000 5.832 
9.730 6029.600 0.000 0.000 0.000 5.838 
9.740 6054.224 0.000 0.000 0.000 5.844 
9.750 6013.837 0.000 0.000 0.000 5.850 
9.760 5954.809 0.000 0.000 0.000 5.856 
9.770 6046.719 0.000 0.000 0.000 5.862 
9.780 6030.969 0.000 0.000 0.000 5.868 
9.790 6027.587 0.000 0.000 0.000 5.874 
9.800 6015.856 0.000 0.000 0.000 5.880 
9.810 5946.877 0.000 0.000 0.000 5.886 
9.820 5968.662 0.000 0.000 0.000 5.892 
9.830 5943.963 0.000 0.000 0.000 5.898 
9.840 6029.653 0.000 0.000 0.000 5.904 
9.850 6033.110 0.000 0.000 0.000 5.910 
9.860 6030.937 0.000 0.000 0.000 5.916 
9.870 5984.469 0.000 0.000 0.000 5.922 
9.880 5958.783 0.000 0.000 0.000 5.928 
9.890 5965.857 0.000 0.000 0.000 5.934 
9.900 6011.944 0.000 0.000 0.000 5.940 
9.910 5920.667 0.000 0.000 0.000 5.946 
9.920 5937.129 0.000 0.000 0.000 5.952 
9.930 5970.442 0.000 0.000 0.000 5.958 
9.940 5964.088 0.000 0.000 0.000 5.964 
9.950 5985.693 0.000 0.000 0.000 5.970 
9.960 5980.890 0.000 0.000 0.000 5.976 
9.970 5990.677 0.000 0.000 0.000 5.982 
9.980 5955.160 0.000 0.000 0.000 5.988 
9.990 5943.945 0.000 0.000 0.000 5.994 
10.000 6003.285 0.000 0.000 0.000 6.000 
