"Test Type","Manual"
"Method Name:","C:\INSTRON\user\template\Sp15_245Lsect001_group-01_pekk_bulk_tensiletest.mtM"
"Name:","4FtPerMin"
"Operator ID:","Jaques"
"Company:","BSU"
"Lab name:",""
"Test date:","1/17/22"
"Temperature:",""
"Humidity:",""
"Note 1:",""
"Note 2:",""
"Note 3:",""
"Geometry:","Circular"
"Specimen",0
"Specimen name:",""
"Width:",6.350000,"mm"
"Thickness:",1.524000,"mm"
"Length:",12.000000,"mm"
"Diameter:",5.000000,"um"
"Inner diameter:",0.500000,"mm"
"Outer diameter:",1.000000,"mm"
"Wall thickness:",0.500000,"mm"
"Area:",19.634954,"um*um"
"Linear density:",1.000000,"den"
"Sled weight:",9.806650,"N"
"Loading span:",0.000000,"mm"
"Support span:",1.000000,"mm"
"Span ratio:","2"
"Fixture type:","3-point"
"Comment:",""
"Included"
"Time sec","Stress Pa","Cycle Count","Total Cycle Count","Repetitions Count","Strain [Exten.] %"
0.000 12.019 0.000 0.000 0.000 0.000 
0.010 56.806 0.000 0.000 0.000 0.010 
0.020 63.827 0.000 0.000 0.000 0.021 
0.030 116.367 0.000 0.000 0.000 0.031 
0.040 156.012 0.000 0.000 0.000 0.042 
0.050 169.246 0.000 0.000 0.000 0.052 
0.060 177.923 0.000 0.000 0.000 0.062 
0.070 334.349 0.000 0.000 0.000 0.073 
0.080 312.148 0.000 0.000 0.000 0.083 
0.090 214.299 0.000 0.000 0.000 0.094 
0.100 331.302 0.000 0.000 0.000 0.104 
0.110 385.283 0.000 0.000 0.000 0.115 
0.120 411.177 0.000 0.000 0.000 0.125 
0.130 519.070 0.000 0.000 0.000 0.135 
0.140 492.690 0.000 0.000 0.000 0.146 
0.150 526.199 0.000 0.000 0.000 0.156 
0.160 505.814 0.000 0.000 0.000 0.167 
0.170 648.476 0.000 0.000 0.000 0.177 
0.180 709.019 0.000 0.000 0.000 0.187 
0.190 748.328 0.000 0.000 0.000 0.198 
0.200 749.415 0.000 0.000 0.000 0.208 
0.210 807.709 0.000 0.000 0.000 0.219 
0.220 926.913 0.000 0.000 0.000 0.229 
0.230 883.041 0.000 0.000 0.000 0.239 
0.240 911.665 0.000 0.000 0.000 0.250 
0.250 949.619 0.000 0.000 0.000 0.260 
0.260 1085.104 0.000 0.000 0.000 0.271 
0.270 997.601 0.000 0.000 0.000 0.281 
0.280 1078.257 0.000 0.000 0.000 0.291 
0.290 1089.340 0.000 0.000 0.000 0.302 
0.300 1190.015 0.000 0.000 0.000 0.312 
0.310 1146.675 0.000 0.000 0.000 0.323 
0.320 1185.935 0.000 0.000 0.000 0.333 
0.330 1167.064 0.000 0.000 0.000 0.344 
0.340 1395.020 0.000 0.000 0.000 0.354 
0.350 1281.026 0.000 0.000 0.000 0.364 
0.360 1483.912 0.000 0.000 0.000 0.375 
0.370 1342.174 0.000 0.000 0.000 0.385 
0.380 1401.534 0.000 0.000 0.000 0.396 
0.390 1529.021 0.000 0.000 0.000 0.406 
0.400 1562.133 0.000 0.000 0.000 0.416 
0.410 1611.766 0.000 0.000 0.000 0.427 
0.420 1557.269 0.000 0.000 0.000 0.437 
0.430 1630.647 0.000 0.000 0.000 0.448 
0.440 1732.088 0.000 0.000 0.000 0.458 
0.450 1768.073 0.000 0.000 0.000 0.468 
0.460 1615.672 0.000 0.000 0.000 0.479 
0.470 1755.112 0.000 0.000 0.000 0.489 
0.480 1998.682 0.000 0.000 0.000 0.500 
0.490 1981.228 0.000 0.000 0.000 0.510 
0.501 1945.553 0.000 0.000 0.000 0.521 
0.511 1884.692 0.000 0.000 0.000 0.531 
0.521 2143.679 0.000 0.000 0.000 0.541 
0.531 2079.720 0.000 0.000 0.000 0.552 
0.541 2140.406 0.000 0.000 0.000 0.562 
0.551 2178.793 0.000 0.000 0.000 0.573 
0.561 2250.219 0.000 0.000 0.000 0.583 
0.571 2167.091 0.000 0.000 0.000 0.593 
0.581 2324.300 0.000 0.000 0.000 0.604 
0.591 2197.279 0.000 0.000 0.000 0.614 
0.601 2314.166 0.000 0.000 0.000 0.625 
0.611 2256.825 0.000 0.000 0.000 0.635 
0.621 2435.290 0.000 0.000 0.000 0.645 
0.631 2408.303 0.000 0.000 0.000 0.656 
0.641 2534.739 0.000 0.000 0.000 0.666 
0.651 2537.194 0.000 0.000 0.000 0.677 
0.661 2476.026 0.000 0.000 0.000 0.687 
0.671 2621.916 0.000 0.000 0.000 0.697 
0.681 2587.425 0.000 0.000 0.000 0.708 
0.691 2680.340 0.000 0.000 0.000 0.718 
0.701 2827.180 0.000 0.000 0.000 0.729 
0.711 2673.742 0.000 0.000 0.000 0.739 
0.721 2806.953 0.000 0.000 0.000 0.750 
0.731 2864.086 0.000 0.000 0.000 0.760 
0.741 2967.501 0.000 0.000 0.000 0.770 
0.751 2906.386 0.000 0.000 0.000 0.781 
0.761 2986.996 0.000 0.000 0.000 0.791 
0.771 2981.467 0.000 0.000 0.000 0.802 
0.781 3024.709 0.000 0.000 0.000 0.812 
0.791 3144.659 0.000 0.000 0.000 0.822 
0.801 3180.569 0.000 0.000 0.000 0.833 
0.811 3110.023 0.000 0.000 0.000 0.843 
0.821 3245.095 0.000 0.000 0.000 0.854 
0.831 3172.390 0.000 0.000 0.000 0.864 
0.841 3221.738 0.000 0.000 0.000 0.874 
0.851 3382.298 0.000 0.000 0.000 0.885 
0.861 3343.861 0.000 0.000 0.000 0.895 
0.871 3384.669 0.000 0.000 0.000 0.906 
0.881 3397.620 0.000 0.000 0.000 0.916 
0.891 3477.927 0.000 0.000 0.000 0.927 
0.901 3472.743 0.000 0.000 0.000 0.937 
0.911 3521.117 0.000 0.000 0.000 0.947 
0.921 3646.767 0.000 0.000 0.000 0.958 
0.931 3575.770 0.000 0.000 0.000 0.968 
0.941 3669.186 0.000 0.000 0.000 0.979 
0.951 3755.473 0.000 0.000 0.000 0.989 
0.961 3791.157 0.000 0.000 0.000 0.999 
0.971 3811.134 0.000 0.000 0.000 1.010 
0.981 3803.566 0.000 0.000 0.000 1.020 
0.991 3892.512 0.000 0.000 0.000 1.031 
1.001 3944.949 0.000 0.000 0.000 1.041 
1.011 3973.673 0.000 0.000 0.000 1.051 
1.021 4016.436 0.000 0.000 0.000 1.062 
1.031 4030.596 0.000 0.000 0.000 1.072 
1.041 4067.696 0.000 0.000 0.000 1.083 
1.051 3968.470 0.000 0.000 0.000 1.093 
1.061 4200.999 0.000 0.000 0.000 1.104 
1.071 4137.444 0.000 0.000 0.000 1.114 
1.081 4281.247 0.000 0.000 0.000 1.124 
1.091 4125.948 0.000 0.000 0.000 1.135 
1.101 4171.184 0.000 0.000 0.000 1.145 
1.111 4382.771 0.000 0.000 0.000 1.156 
1.121 4373.103 0.000 0.000 0.000 1.166 
1.131 4383.415 0.000 0.000 0.000 1.176 
1.141 4318.233 0.000 0.000 0.000 1.187 
1.151 4495.895 0.000 0.000 0.000 1.197 
1.161 4587.954 0.000 0.000 0.000 1.208 
1.171 4518.128 0.000 0.000 0.000 1.218 
1.181 4747.633 0.000 0.000 0.000 1.228 
1.191 4656.024 0.000 0.000 0.000 1.239 
1.201 4645.821 0.000 0.000 0.000 1.249 
1.211 4735.878 0.000 0.000 0.000 1.260 
1.221 4848.382 0.000 0.000 0.000 1.270 
1.231 4808.628 0.000 0.000 0.000 1.280 
1.241 4925.026 0.000 0.000 0.000 1.291 
1.251 4932.881 0.000 0.000 0.000 1.301 
1.261 4965.471 0.000 0.000 0.000 1.312 
1.271 4963.625 0.000 0.000 0.000 1.322 
1.281 5058.061 0.000 0.000 0.000 1.333 
1.291 5138.749 0.000 0.000 0.000 1.343 
1.301 5190.221 0.000 0.000 0.000 1.353 
1.311 5248.216 0.000 0.000 0.000 1.364 
1.321 5130.849 0.000 0.000 0.000 1.374 
1.331 5199.259 0.000 0.000 0.000 1.385 
1.341 5195.774 0.000 0.000 0.000 1.395 
1.351 5318.724 0.000 0.000 0.000 1.405 
1.361 5321.700 0.000 0.000 0.000 1.416 
1.371 5289.533 0.000 0.000 0.000 1.426 
1.381 5401.932 0.000 0.000 0.000 1.437 
1.391 5393.520 0.000 0.000 0.000 1.447 
1.401 5509.605 0.000 0.000 0.000 1.457 
1.411 5505.214 0.000 0.000 0.000 1.468 
1.421 5574.989 0.000 0.000 0.000 1.478 
1.431 5581.650 0.000 0.000 0.000 1.489 
1.441 5705.620 0.000 0.000 0.000 1.499 
1.451 5830.152 0.000 0.000 0.000 1.510 
1.461 5661.178 0.000 0.000 0.000 1.520 
1.471 5748.989 0.000 0.000 0.000 1.530 
1.481 5810.169 0.000 0.000 0.000 1.541 
1.491 5941.512 0.000 0.000 0.000 1.551 
1.502 5914.005 0.000 0.000 0.000 1.562 
1.512 5923.287 0.000 0.000 0.000 1.572 
1.522 6074.756 0.000 0.000 0.000 1.582 
1.532 6002.404 0.000 0.000 0.000 1.593 
1.542 6044.116 0.000 0.000 0.000 1.603 
1.552 6082.242 0.000 0.000 0.000 1.614 
1.562 6217.255 0.000 0.000 0.000 1.624 
1.572 6253.590 0.000 0.000 0.000 1.634 
1.582 6226.339 0.000 0.000 0.000 1.645 
1.592 6289.212 0.000 0.000 0.000 1.655 
1.602 6356.471 0.000 0.000 0.000 1.666 
1.612 6284.019 0.000 0.000 0.000 1.676 
1.622 6504.653 0.000 0.000 0.000 1.686 
1.632 6448.903 0.000 0.000 0.000 1.697 
1.642 6555.245 0.000 0.000 0.000 1.707 
1.652 6465.173 0.000 0.000 0.000 1.718 
1.662 6478.577 0.000 0.000 0.000 1.728 
1.672 6606.769 0.000 0.000 0.000 1.739 
1.682 6631.910 0.000 0.000 0.000 1.749 
1.692 6597.418 0.000 0.000 0.000 1.759 
1.702 6692.155 0.000 0.000 0.000 1.770 
1.712 6702.717 0.000 0.000 0.000 1.780 
1.722 6695.752 0.000 0.000 0.000 1.791 
1.732 6863.222 0.000 0.000 0.000 1.801 
1.742 6834.829 0.000 0.000 0.000 1.811 
1.752 6864.608 0.000 0.000 0.000 1.822 
1.762 6985.457 0.000 0.000 0.000 1.832 
1.772 6859.872 0.000 0.000 0.000 1.843 
1.782 7117.476 0.000 0.000 0.000 1.853 
1.792 7001.907 0.000 0.000 0.000 1.863 
1.802 7018.420 0.000 0.000 0.000 1.874 
1.812 7034.031 0.000 0.000 0.000 1.884 
1.822 7168.497 0.000 0.000 0.000 1.895 
1.832 7156.380 0.000 0.000 0.000 1.905 
1.842 7182.785 0.000 0.000 0.000 1.916 
1.852 7223.164 0.000 0.000 0.000 1.926 
1.862 7169.897 0.000 0.000 0.000 1.936 
1.872 7353.200 0.000 0.000 0.000 1.947 
1.882 7373.426 0.000 0.000 0.000 1.957 
1.892 7406.735 0.000 0.000 0.000 1.968 
1.902 7479.191 0.000 0.000 0.000 1.978 
1.912 7372.696 0.000 0.000 0.000 1.988 
1.922 7554.857 0.000 0.000 0.000 1.999 
1.932 7701.913 0.000 0.000 0.000 2.009 
1.942 7549.160 0.000 0.000 0.000 2.020 
1.952 7655.471 0.000 0.000 0.000 2.030 
1.962 7762.186 0.000 0.000 0.000 2.040 
1.972 7806.647 0.000 0.000 0.000 2.051 
1.982 7648.172 0.000 0.000 0.000 2.061 
1.992 7899.844 0.000 0.000 0.000 2.072 
2.002 8001.486 0.000 0.000 0.000 2.082 
2.012 7955.861 0.000 0.000 0.000 2.092 
2.022 7936.442 0.000 0.000 0.000 2.103 
2.032 7943.312 0.000 0.000 0.000 2.113 
2.042 8066.772 0.000 0.000 0.000 2.124 
2.052 8030.211 0.000 0.000 0.000 2.134 
2.062 8065.902 0.000 0.000 0.000 2.145 
2.072 8196.313 0.000 0.000 0.000 2.155 
2.082 8222.130 0.000 0.000 0.000 2.165 
2.092 8290.395 0.000 0.000 0.000 2.176 
2.102 8316.728 0.000 0.000 0.000 2.186 
2.112 8314.079 0.000 0.000 0.000 2.197 
2.122 8199.944 0.000 0.000 0.000 2.207 
2.132 8362.136 0.000 0.000 0.000 2.217 
2.142 8423.875 0.000 0.000 0.000 2.228 
2.152 8480.690 0.000 0.000 0.000 2.238 
2.162 8383.520 0.000 0.000 0.000 2.249 
2.172 8527.334 0.000 0.000 0.000 2.259 
2.182 8677.603 0.000 0.000 0.000 2.269 
2.192 8684.662 0.000 0.000 0.000 2.280 
2.202 8662.961 0.000 0.000 0.000 2.290 
2.212 8711.301 0.000 0.000 0.000 2.301 
2.222 8883.684 0.000 0.000 0.000 2.311 
2.232 8806.009 0.000 0.000 0.000 2.322 
2.242 8869.990 0.000 0.000 0.000 2.332 
2.252 8929.764 0.000 0.000 0.000 2.342 
2.262 8853.358 0.000 0.000 0.000 2.353 
2.272 8951.063 0.000 0.000 0.000 2.363 
2.282 8927.160 0.000 0.000 0.000 2.374 
2.292 9011.369 0.000 0.000 0.000 2.384 
2.302 9011.522 0.000 0.000 0.000 2.394 
2.312 9118.216 0.000 0.000 0.000 2.405 
2.322 9141.674 0.000 0.000 0.000 2.415 
2.332 9080.302 0.000 0.000 0.000 2.426 
2.342 9224.645 0.000 0.000 0.000 2.436 
2.352 9189.451 0.000 0.000 0.000 2.446 
2.362 9306.769 0.000 0.000 0.000 2.457 
2.372 9330.764 0.000 0.000 0.000 2.467 
2.382 9375.611 0.000 0.000 0.000 2.478 
2.392 9347.704 0.000 0.000 0.000 2.488 
2.402 9498.901 0.000 0.000 0.000 2.498 
2.412 9508.856 0.000 0.000 0.000 2.509 
2.422 9585.288 0.000 0.000 0.000 2.519 
2.432 9510.036 0.000 0.000 0.000 2.530 
2.442 9648.016 0.000 0.000 0.000 2.540 
2.452 9529.139 0.000 0.000 0.000 2.551 
2.462 9746.592 0.000 0.000 0.000 2.561 
2.472 9720.651 0.000 0.000 0.000 2.571 
2.482 9777.907 0.000 0.000 0.000 2.582 
2.492 9852.087 0.000 0.000 0.000 2.592 
2.503 9936.610 0.000 0.000 0.000 2.603 
2.513 9918.836 0.000 0.000 0.000 2.613 
2.523 10012.377 0.000 0.000 0.000 2.623 
2.533 10089.459 0.000 0.000 0.000 2.634 
2.543 10041.657 0.000 0.000 0.000 2.644 
2.553 10125.585 0.000 0.000 0.000 2.655 
2.563 10091.542 0.000 0.000 0.000 2.665 
2.573 10069.608 0.000 0.000 0.000 2.675 
2.583 10240.280 0.000 0.000 0.000 2.686 
2.593 10182.545 0.000 0.000 0.000 2.696 
2.603 10266.304 0.000 0.000 0.000 2.707 
2.613 10322.528 0.000 0.000 0.000 2.717 
2.623 10373.091 0.000 0.000 0.000 2.728 
2.633 10496.996 0.000 0.000 0.000 2.738 
2.643 10464.245 0.000 0.000 0.000 2.748 
2.653 10445.311 0.000 0.000 0.000 2.759 
2.663 10497.022 0.000 0.000 0.000 2.769 
2.673 10511.342 0.000 0.000 0.000 2.780 
2.683 10508.988 0.000 0.000 0.000 2.790 
2.693 10643.709 0.000 0.000 0.000 2.800 
2.703 10578.493 0.000 0.000 0.000 2.811 
2.713 10783.051 0.000 0.000 0.000 2.821 
2.723 10669.873 0.000 0.000 0.000 2.832 
2.733 10723.740 0.000 0.000 0.000 2.842 
2.743 10820.824 0.000 0.000 0.000 2.852 
2.753 10918.591 0.000 0.000 0.000 2.863 
2.763 10943.618 0.000 0.000 0.000 2.873 
2.773 10867.519 0.000 0.000 0.000 2.884 
2.783 10994.025 0.000 0.000 0.000 2.894 
2.793 11066.660 0.000 0.000 0.000 2.905 
2.803 11081.608 0.000 0.000 0.000 2.915 
2.813 11228.057 0.000 0.000 0.000 2.925 
2.823 11057.882 0.000 0.000 0.000 2.936 
2.833 11179.004 0.000 0.000 0.000 2.946 
2.843 11192.004 0.000 0.000 0.000 2.957 
2.853 11199.722 0.000 0.000 0.000 2.967 
2.863 11233.169 0.000 0.000 0.000 2.977 
2.873 11444.074 0.000 0.000 0.000 2.988 
2.883 11317.575 0.000 0.000 0.000 2.998 
2.893 11223.987 0.000 0.000 0.000 3.009 
2.903 11426.438 0.000 0.000 0.000 3.019 
2.913 11520.074 0.000 0.000 0.000 3.029 
2.923 11462.031 0.000 0.000 0.000 3.040 
2.933 11506.080 0.000 0.000 0.000 3.050 
2.943 11571.301 0.000 0.000 0.000 3.061 
2.953 11666.467 0.000 0.000 0.000 3.071 
2.963 11825.385 0.000 0.000 0.000 3.081 
2.973 11654.461 0.000 0.000 0.000 3.092 
2.983 11830.237 0.000 0.000 0.000 3.102 
2.993 11881.700 0.000 0.000 0.000 3.113 
3.003 11809.140 0.000 0.000 0.000 3.123 
3.013 11835.414 0.000 0.000 0.000 3.134 
3.023 11604.248 0.000 0.000 0.000 3.144 
3.033 11712.759 0.000 0.000 0.000 3.154 
3.043 11797.701 0.000 0.000 0.000 3.165 
3.053 11741.470 0.000 0.000 0.000 3.175 
3.063 11746.906 0.000 0.000 0.000 3.186 
3.073 11800.521 0.000 0.000 0.000 3.196 
3.083 11562.740 0.000 0.000 0.000 3.206 
3.093 11799.988 0.000 0.000 0.000 3.217 
3.103 11797.974 0.000 0.000 0.000 3.227 
3.113 11695.560 0.000 0.000 0.000 3.238 
3.123 11699.424 0.000 0.000 0.000 3.248 
3.133 11751.308 0.000 0.000 0.000 3.258 
3.143 11551.869 0.000 0.000 0.000 3.269 
3.153 11614.198 0.000 0.000 0.000 3.279 
3.163 11634.817 0.000 0.000 0.000 3.290 
3.173 11737.991 0.000 0.000 0.000 3.300 
3.183 11676.949 0.000 0.000 0.000 3.311 
3.193 11676.089 0.000 0.000 0.000 3.321 
3.203 11508.434 0.000 0.000 0.000 3.331 
3.213 11570.925 0.000 0.000 0.000 3.342 
3.223 11403.913 0.000 0.000 0.000 3.352 
3.233 11521.210 0.000 0.000 0.000 3.363 
3.243 11551.887 0.000 0.000 0.000 3.373 
3.253 11485.892 0.000 0.000 0.000 3.383 
3.263 11696.501 0.000 0.000 0.000 3.394 
3.273 11424.469 0.000 0.000 0.000 3.404 
3.283 11457.597 0.000 0.000 0.000 3.415 
3.293 11565.917 0.000 0.000 0.000 3.425 
3.303 11426.238 0.000 0.000 0.000 3.435 
3.313 11503.985 0.000 0.000 0.000 3.446 
3.323 11458.681 0.000 0.000 0.000 3.456 
3.333 11445.019 0.000 0.000 0.000 3.467 
3.343 11445.136 0.000 0.000 0.000 3.477 
3.353 11495.981 0.000 0.000 0.000 3.487 
3.363 11594.617 0.000 0.000 0.000 3.498 
3.373 11546.986 0.000 0.000 0.000 3.508 
3.383 11604.732 0.000 0.000 0.000 3.519 
3.393 11465.055 0.000 0.000 0.000 3.529 
3.403 11559.599 0.000 0.000 0.000 3.540 
3.413 11575.298 0.000 0.000 0.000 3.550 
3.423 11476.623 0.000 0.000 0.000 3.560 
3.433 11559.258 0.000 0.000 0.000 3.571 
3.443 11554.743 0.000 0.000 0.000 3.581 
3.453 11479.889 0.000 0.000 0.000 3.592 
3.463 11520.522 0.000 0.000 0.000 3.602 
3.473 11502.375 0.000 0.000 0.000 3.612 
3.483 11541.165 0.000 0.000 0.000 3.623 
3.493 11464.436 0.000 0.000 0.000 3.633 
3.504 11529.631 0.000 0.000 0.000 3.644 
3.514 11483.461 0.000 0.000 0.000 3.654 
3.524 11570.954 0.000 0.000 0.000 3.664 
3.534 11387.566 0.000 0.000 0.000 3.675 
3.544 11546.448 0.000 0.000 0.000 3.685 
3.554 11558.875 0.000 0.000 0.000 3.696 
3.564 11504.668 0.000 0.000 0.000 3.706 
3.574 11499.769 0.000 0.000 0.000 3.717 
3.584 11565.390 0.000 0.000 0.000 3.727 
3.594 11569.677 0.000 0.000 0.000 3.737 
3.604 11559.456 0.000 0.000 0.000 3.748 
3.614 11473.292 0.000 0.000 0.000 3.758 
3.624 11518.612 0.000 0.000 0.000 3.769 
3.634 11410.575 0.000 0.000 0.000 3.779 
3.644 11444.561 0.000 0.000 0.000 3.789 
3.654 11540.682 0.000 0.000 0.000 3.800 
3.664 11573.796 0.000 0.000 0.000 3.810 
3.674 11613.001 0.000 0.000 0.000 3.821 
3.684 11498.888 0.000 0.000 0.000 3.831 
3.694 11526.603 0.000 0.000 0.000 3.841 
3.704 11519.560 0.000 0.000 0.000 3.852 
3.714 11583.233 0.000 0.000 0.000 3.862 
3.724 11557.000 0.000 0.000 0.000 3.873 
3.734 11510.727 0.000 0.000 0.000 3.883 
3.744 11509.487 0.000 0.000 0.000 3.893 
3.754 11541.991 0.000 0.000 0.000 3.904 
3.764 11566.656 0.000 0.000 0.000 3.914 
3.774 11577.204 0.000 0.000 0.000 3.925 
3.784 11575.983 0.000 0.000 0.000 3.935 
3.794 11585.782 0.000 0.000 0.000 3.946 
3.804 11574.633 0.000 0.000 0.000 3.956 
3.814 11651.479 0.000 0.000 0.000 3.966 
3.824 11516.871 0.000 0.000 0.000 3.977 
3.834 11565.964 0.000 0.000 0.000 3.987 
3.844 11520.180 0.000 0.000 0.000 3.998 
3.854 11511.637 0.000 0.000 0.000 4.008 
3.864 11381.475 0.000 0.000 0.000 4.018 
3.874 11640.555 0.000 0.000 0.000 4.029 
3.884 11583.110 0.000 0.000 0.000 4.039 
3.894 11607.847 0.000 0.000 0.000 4.050 
3.904 11709.212 0.000 0.000 0.000 4.060 
3.914 11552.272 0.000 0.000 0.000 4.070 
3.924 11505.152 0.000 0.000 0.000 4.081 
3.934 11521.428 0.000 0.000 0.000 4.091 
3.944 11489.056 0.000 0.000 0.000 4.102 
3.954 11485.600 0.000 0.000 0.000 4.112 
3.964 11614.634 0.000 0.000 0.000 4.123 
3.974 11619.572 0.000 0.000 0.000 4.133 
3.984 11533.608 0.000 0.000 0.000 4.143 
3.994 11565.503 0.000 0.000 0.000 4.154 
4.004 11572.654 0.000 0.000 0.000 4.164 
4.014 11533.934 0.000 0.000 0.000 4.175 
4.024 11542.500 0.000 0.000 0.000 4.185 
4.034 11498.531 0.000 0.000 0.000 4.195 
4.044 11669.630 0.000 0.000 0.000 4.206 
4.054 11636.397 0.000 0.000 0.000 4.216 
4.064 11559.417 0.000 0.000 0.000 4.227 
4.074 11656.629 0.000 0.000 0.000 4.237 
4.084 11693.169 0.000 0.000 0.000 4.247 
4.094 11655.277 0.000 0.000 0.000 4.258 
4.104 11674.619 0.000 0.000 0.000 4.268 
4.114 11522.703 0.000 0.000 0.000 4.279 
4.124 11591.229 0.000 0.000 0.000 4.289 
4.134 11609.053 0.000 0.000 0.000 4.299 
4.144 11563.440 0.000 0.000 0.000 4.310 
4.154 11539.026 0.000 0.000 0.000 4.320 
4.164 11540.815 0.000 0.000 0.000 4.331 
4.174 11600.793 0.000 0.000 0.000 4.341 
4.184 11616.517 0.000 0.000 0.000 4.352 
4.194 11474.117 0.000 0.000 0.000 4.362 
4.204 11566.781 0.000 0.000 0.000 4.372 
4.214 11672.558 0.000 0.000 0.000 4.383 
4.224 11638.620 0.000 0.000 0.000 4.393 
4.234 11553.515 0.000 0.000 0.000 4.404 
4.244 11620.905 0.000 0.000 0.000 4.414 
4.254 11438.050 0.000 0.000 0.000 4.424 
4.264 11523.818 0.000 0.000 0.000 4.435 
4.274 11659.695 0.000 0.000 0.000 4.445 
4.284 11588.890 0.000 0.000 0.000 4.456 
4.294 11694.587 0.000 0.000 0.000 4.466 
4.304 11604.460 0.000 0.000 0.000 4.476 
4.314 11495.202 0.000 0.000 0.000 4.487 
4.324 11589.007 0.000 0.000 0.000 4.497 
4.334 11578.044 0.000 0.000 0.000 4.508 
4.344 11610.031 0.000 0.000 0.000 4.518 
4.354 11649.495 0.000 0.000 0.000 4.529 
4.364 11623.717 0.000 0.000 0.000 4.539 
4.374 11705.268 0.000 0.000 0.000 4.549 
4.384 11513.390 0.000 0.000 0.000 4.560 
4.394 11598.652 0.000 0.000 0.000 4.570 
4.404 11626.417 0.000 0.000 0.000 4.581 
4.414 11675.935 0.000 0.000 0.000 4.591 
4.424 11601.638 0.000 0.000 0.000 4.601 
4.434 11462.021 0.000 0.000 0.000 4.612 
4.444 11574.037 0.000 0.000 0.000 4.622 
4.454 11638.349 0.000 0.000 0.000 4.633 
4.464 11507.862 0.000 0.000 0.000 4.643 
4.474 11657.857 0.000 0.000 0.000 4.653 
4.484 11595.958 0.000 0.000 0.000 4.664 
4.494 11689.413 0.000 0.000 0.000 4.674 
4.505 11599.530 0.000 0.000 0.000 4.685 
4.515 11599.136 0.000 0.000 0.000 4.695 
4.525 11683.544 0.000 0.000 0.000 4.706 
4.535 11499.826 0.000 0.000 0.000 4.716 
4.545 11587.548 0.000 0.000 0.000 4.726 
4.555 11608.216 0.000 0.000 0.000 4.737 
4.565 11578.310 0.000 0.000 0.000 4.747 
4.575 11594.746 0.000 0.000 0.000 4.758 
4.585 11477.196 0.000 0.000 0.000 4.768 
4.595 11650.460 0.000 0.000 0.000 4.778 
4.605 11537.775 0.000 0.000 0.000 4.789 
4.615 11700.991 0.000 0.000 0.000 4.799 
4.625 11567.909 0.000 0.000 0.000 4.810 
4.635 11583.731 0.000 0.000 0.000 4.820 
4.645 11606.954 0.000 0.000 0.000 4.830 
4.655 11676.039 0.000 0.000 0.000 4.841 
4.665 11700.589 0.000 0.000 0.000 4.851 
4.675 11676.627 0.000 0.000 0.000 4.862 
4.685 11718.830 0.000 0.000 0.000 4.872 
4.695 11622.263 0.000 0.000 0.000 4.882 
4.705 11605.346 0.000 0.000 0.000 4.893 
4.715 11589.030 0.000 0.000 0.000 4.903 
4.725 11676.276 0.000 0.000 0.000 4.914 
4.735 11546.614 0.000 0.000 0.000 4.924 
4.745 11640.594 0.000 0.000 0.000 4.935 
4.755 11537.153 0.000 0.000 0.000 4.945 
4.765 11574.077 0.000 0.000 0.000 4.955 
4.775 11797.071 0.000 0.000 0.000 4.966 
4.785 11546.492 0.000 0.000 0.000 4.976 
4.795 11506.283 0.000 0.000 0.000 4.987 
4.805 11602.338 0.000 0.000 0.000 4.997 
4.815 11634.348 0.000 0.000 0.000 5.007 
4.825 11617.102 0.000 0.000 0.000 5.018 
4.835 11680.281 0.000 0.000 0.000 5.028 
4.845 11733.960 0.000 0.000 0.000 5.039 
4.855 11544.915 0.000 0.000 0.000 5.049 
4.865 11664.289 0.000 0.000 0.000 5.059 
4.875 11619.040 0.000 0.000 0.000 5.070 
4.885 11703.794 0.000 0.000 0.000 5.080 
4.895 11639.934 0.000 0.000 0.000 5.091 
4.905 11598.532 0.000 0.000 0.000 5.101 
4.915 11660.958 0.000 0.000 0.000 5.112 
4.925 11578.177 0.000 0.000 0.000 5.122 
4.935 11562.803 0.000 0.000 0.000 5.132 
4.945 11585.904 0.000 0.000 0.000 5.143 
4.955 11516.331 0.000 0.000 0.000 5.153 
4.965 11670.107 0.000 0.000 0.000 5.164 
4.975 11597.187 0.000 0.000 0.000 5.174 
4.985 11618.013 0.000 0.000 0.000 5.184 
4.995 11610.942 0.000 0.000 0.000 5.195 
5.005 11636.033 0.000 0.000 0.000 5.205 
5.015 11579.610 0.000 0.000 0.000 5.216 
5.025 11546.035 0.000 0.000 0.000 5.226 
5.035 11581.671 0.000 0.000 0.000 5.236 
5.045 11630.243 0.000 0.000 0.000 5.247 
5.055 11650.845 0.000 0.000 0.000 5.257 
5.065 11558.636 0.000 0.000 0.000 5.268 
5.075 11566.970 0.000 0.000 0.000 5.278 
5.085 11553.902 0.000 0.000 0.000 5.288 
5.095 11551.256 0.000 0.000 0.000 5.299 
5.105 11534.853 0.000 0.000 0.000 5.309 
5.115 11689.038 0.000 0.000 0.000 5.320 
5.125 11644.118 0.000 0.000 0.000 5.330 
5.135 11546.048 0.000 0.000 0.000 5.341 
5.145 11549.140 0.000 0.000 0.000 5.351 
5.155 11582.648 0.000 0.000 0.000 5.361 
5.165 11631.330 0.000 0.000 0.000 5.372 
5.175 11611.044 0.000 0.000 0.000 5.382 
5.185 11549.364 0.000 0.000 0.000 5.393 
5.195 11569.612 0.000 0.000 0.000 5.403 
5.205 11619.213 0.000 0.000 0.000 5.413 
5.215 11634.160 0.000 0.000 0.000 5.424 
5.225 11623.097 0.000 0.000 0.000 5.434 
5.235 11566.602 0.000 0.000 0.000 5.445 
5.245 11761.910 0.000 0.000 0.000 5.455 
5.255 11591.517 0.000 0.000 0.000 5.465 
5.265 11611.420 0.000 0.000 0.000 5.476 
5.275 11575.688 0.000 0.000 0.000 5.486 
5.285 11622.286 0.000 0.000 0.000 5.497 
5.295 11521.210 0.000 0.000 0.000 5.507 
5.305 11615.783 0.000 0.000 0.000 5.518 
5.315 11676.014 0.000 0.000 0.000 5.528 
5.325 11528.692 0.000 0.000 0.000 5.538 
5.335 11622.520 0.000 0.000 0.000 5.549 
5.345 11591.106 0.000 0.000 0.000 5.559 
5.355 11583.000 0.000 0.000 0.000 5.570 
5.365 11690.361 0.000 0.000 0.000 5.580 
5.375 11717.362 0.000 0.000 0.000 5.590 
5.385 11625.579 0.000 0.000 0.000 5.601 
5.395 11717.610 0.000 0.000 0.000 5.611 
5.405 11572.979 0.000 0.000 0.000 5.622 
5.415 11682.546 0.000 0.000 0.000 5.632 
5.425 11586.968 0.000 0.000 0.000 5.642 
5.435 11687.476 0.000 0.000 0.000 5.653 
5.445 11661.840 0.000 0.000 0.000 5.663 
5.455 11638.174 0.000 0.000 0.000 5.674 
5.465 11559.241 0.000 0.000 0.000 5.684 
5.475 11640.477 0.000 0.000 0.000 5.694 
5.485 11598.029 0.000 0.000 0.000 5.705 
5.495 11644.646 0.000 0.000 0.000 5.715 
5.506 11637.544 0.000 0.000 0.000 5.726 
5.516 11522.055 0.000 0.000 0.000 5.736 
5.526 11599.536 0.000 0.000 0.000 5.747 
5.536 11620.006 0.000 0.000 0.000 5.757 
5.546 11645.622 0.000 0.000 0.000 5.767 
5.556 11669.059 0.000 0.000 0.000 5.778 
5.566 11655.344 0.000 0.000 0.000 5.788 
5.576 11664.173 0.000 0.000 0.000 5.799 
5.586 11687.650 0.000 0.000 0.000 5.809 
5.596 11650.660 0.000 0.000 0.000 5.819 
5.606 11644.627 0.000 0.000 0.000 5.830 
5.616 11576.533 0.000 0.000 0.000 5.840 
5.626 11617.908 0.000 0.000 0.000 5.851 
5.636 11610.382 0.000 0.000 0.000 5.861 
5.646 11598.288 0.000 0.000 0.000 5.871 
5.656 11472.064 0.000 0.000 0.000 5.882 
5.666 11591.385 0.000 0.000 0.000 5.892 
5.676 11481.738 0.000 0.000 0.000 5.903 
5.686 11572.657 0.000 0.000 0.000 5.913 
5.696 11623.265 0.000 0.000 0.000 5.924 
5.706 11606.061 0.000 0.000 0.000 5.934 
5.716 11497.408 0.000 0.000 0.000 5.944 
5.726 11569.381 0.000 0.000 0.000 5.955 
5.736 11614.228 0.000 0.000 0.000 5.965 
5.746 11588.025 0.000 0.000 0.000 5.976 
5.756 11591.867 0.000 0.000 0.000 5.986 
5.766 11630.716 0.000 0.000 0.000 5.996 
5.776 11678.018 0.000 0.000 0.000 6.007 
5.786 11631.245 0.000 0.000 0.000 6.017 
5.796 11585.473 0.000 0.000 0.000 6.028 
5.806 11648.787 0.000 0.000 0.000 6.038 
5.816 11616.352 0.000 0.000 0.000 6.048 
5.826 11618.305 0.000 0.000 0.000 6.059 
5.836 11615.710 0.000 0.000 0.000 6.069 
5.846 11533.214 0.000 0.000 0.000 6.080 
5.856 11546.090 0.000 0.000 0.000 6.090 
5.866 11657.192 0.000 0.000 0.000 6.101 
5.876 11657.759 0.000 0.000 0.000 6.111 
5.886 11589.567 0.000 0.000 0.000 6.121 
5.896 11602.216 0.000 0.000 0.000 6.132 
5.906 11556.248 0.000 0.000 0.000 6.142 
5.916 11557.798 0.000 0.000 0.000 6.153 
5.926 11570.069 0.000 0.000 0.000 6.163 
5.936 11557.236 0.000 0.000 0.000 6.173 
5.946 11650.781 0.000 0.000 0.000 6.184 
5.956 11468.038 0.000 0.000 0.000 6.194 
5.966 11642.707 0.000 0.000 0.000 6.205 
5.976 11610.158 0.000 0.000 0.000 6.215 
5.986 11581.495 0.000 0.000 0.000 6.225 
5.996 11524.960 0.000 0.000 0.000 6.236 
6.006 11628.627 0.000 0.000 0.000 6.246 
6.016 11603.095 0.000 0.000 0.000 6.257 
6.026 11613.735 0.000 0.000 0.000 6.267 
6.036 11678.905 0.000 0.000 0.000 6.277 
6.046 11558.265 0.000 0.000 0.000 6.288 
6.056 11725.256 0.000 0.000 0.000 6.298 
6.066 11557.613 0.000 0.000 0.000 6.309 
6.076 11509.190 0.000 0.000 0.000 6.319 
6.086 11531.184 0.000 0.000 0.000 6.330 
6.096 11548.902 0.000 0.000 0.000 6.340 
6.106 11560.959 0.000 0.000 0.000 6.350 
6.116 11571.699 0.000 0.000 0.000 6.361 
6.126 11565.446 0.000 0.000 0.000 6.371 
6.136 11575.356 0.000 0.000 0.000 6.382 
6.146 11585.981 0.000 0.000 0.000 6.392 
6.156 11567.893 0.000 0.000 0.000 6.402 
6.166 11465.540 0.000 0.000 0.000 6.413 
6.176 11577.699 0.000 0.000 0.000 6.423 
6.186 11547.604 0.000 0.000 0.000 6.434 
6.196 11591.445 0.000 0.000 0.000 6.444 
6.206 11537.178 0.000 0.000 0.000 6.454 
6.216 11547.167 0.000 0.000 0.000 6.465 
6.226 11662.144 0.000 0.000 0.000 6.475 
6.236 11526.202 0.000 0.000 0.000 6.486 
6.246 11505.386 0.000 0.000 0.000 6.496 
6.256 11548.386 0.000 0.000 0.000 6.507 
6.266 11551.195 0.000 0.000 0.000 6.517 
6.276 11590.416 0.000 0.000 0.000 6.527 
6.286 11502.754 0.000 0.000 0.000 6.538 
6.296 11548.053 0.000 0.000 0.000 6.548 
6.306 11613.340 0.000 0.000 0.000 6.559 
6.316 11594.820 0.000 0.000 0.000 6.569 
6.326 11602.037 0.000 0.000 0.000 6.579 
6.336 11478.346 0.000 0.000 0.000 6.590 
6.346 11630.257 0.000 0.000 0.000 6.600 
6.356 11522.851 0.000 0.000 0.000 6.611 
6.366 11551.414 0.000 0.000 0.000 6.621 
6.376 11503.477 0.000 0.000 0.000 6.631 
6.386 11588.361 0.000 0.000 0.000 6.642 
6.396 11441.670 0.000 0.000 0.000 6.652 
6.406 11612.472 0.000 0.000 0.000 6.663 
6.416 11505.587 0.000 0.000 0.000 6.673 
6.426 11527.786 0.000 0.000 0.000 6.683 
6.436 11591.649 0.000 0.000 0.000 6.694 
6.446 11543.687 0.000 0.000 0.000 6.704 
6.456 11518.510 0.000 0.000 0.000 6.715 
6.466 11544.618 0.000 0.000 0.000 6.725 
6.476 11500.360 0.000 0.000 0.000 6.736 
6.486 11521.298 0.000 0.000 0.000 6.746 
6.496 11647.916 0.000 0.000 0.000 6.756 
6.507 11511.788 0.000 0.000 0.000 6.767 
6.517 11531.072 0.000 0.000 0.000 6.777 
6.527 11636.408 0.000 0.000 0.000 6.788 
6.537 11550.088 0.000 0.000 0.000 6.798 
6.547 11423.264 0.000 0.000 0.000 6.808 
6.557 11511.958 0.000 0.000 0.000 6.819 
6.567 11544.267 0.000 0.000 0.000 6.829 
6.577 11433.753 0.000 0.000 0.000 6.840 
6.587 11619.741 0.000 0.000 0.000 6.850 
6.597 11535.407 0.000 0.000 0.000 6.860 
6.607 11541.983 0.000 0.000 0.000 6.871 
6.617 11524.977 0.000 0.000 0.000 6.881 
6.627 11583.519 0.000 0.000 0.000 6.892 
6.637 11489.801 0.000 0.000 0.000 6.902 
6.647 11480.314 0.000 0.000 0.000 6.913 
6.657 11565.456 0.000 0.000 0.000 6.923 
6.667 11549.121 0.000 0.000 0.000 6.933 
6.677 11474.158 0.000 0.000 0.000 6.944 
6.687 11506.544 0.000 0.000 0.000 6.954 
6.697 11399.815 0.000 0.000 0.000 6.965 
6.707 11529.896 0.000 0.000 0.000 6.975 
6.717 11591.208 0.000 0.000 0.000 6.985 
6.727 11446.958 0.000 0.000 0.000 6.996 
6.737 11424.853 0.000 0.000 0.000 7.006 
6.747 11563.533 0.000 0.000 0.000 7.017 
6.757 11548.747 0.000 0.000 0.000 7.027 
6.767 11537.312 0.000 0.000 0.000 7.037 
6.777 11504.964 0.000 0.000 0.000 7.048 
6.787 11473.905 0.000 0.000 0.000 7.058 
6.797 11518.065 0.000 0.000 0.000 7.069 
6.807 11465.519 0.000 0.000 0.000 7.079 
6.817 11464.463 0.000 0.000 0.000 7.089 
6.827 11504.781 0.000 0.000 0.000 7.100 
6.837 11513.709 0.000 0.000 0.000 7.110 
6.847 11493.442 0.000 0.000 0.000 7.121 
6.857 11412.767 0.000 0.000 0.000 7.131 
6.867 11439.689 0.000 0.000 0.000 7.142 
6.877 11453.299 0.000 0.000 0.000 7.152 
6.887 11533.406 0.000 0.000 0.000 7.162 
6.897 11509.121 0.000 0.000 0.000 7.173 
6.907 11420.252 0.000 0.000 0.000 7.183 
6.917 11411.355 0.000 0.000 0.000 7.194 
6.927 11487.830 0.000 0.000 0.000 7.204 
6.937 11534.215 0.000 0.000 0.000 7.214 
6.947 11426.460 0.000 0.000 0.000 7.225 
6.957 11555.334 0.000 0.000 0.000 7.235 
6.967 11505.098 0.000 0.000 0.000 7.246 
6.977 11477.179 0.000 0.000 0.000 7.256 
6.987 11599.747 0.000 0.000 0.000 7.266 
6.997 11385.747 0.000 0.000 0.000 7.277 
7.007 11451.248 0.000 0.000 0.000 7.287 
7.017 11381.405 0.000 0.000 0.000 7.298 
7.027 11477.823 0.000 0.000 0.000 7.308 
7.037 11446.903 0.000 0.000 0.000 7.319 
7.047 11491.097 0.000 0.000 0.000 7.329 
7.057 11495.823 0.000 0.000 0.000 7.339 
7.067 11510.719 0.000 0.000 0.000 7.350 
7.077 11346.341 0.000 0.000 0.000 7.360 
7.087 11448.436 0.000 0.000 0.000 7.371 
7.097 11525.180 0.000 0.000 0.000 7.381 
7.107 11381.665 0.000 0.000 0.000 7.391 
7.117 11515.991 0.000 0.000 0.000 7.402 
7.127 11439.240 0.000 0.000 0.000 7.412 
7.137 11585.644 0.000 0.000 0.000 7.423 
7.147 11414.418 0.000 0.000 0.000 7.433 
7.157 11468.726 0.000 0.000 0.000 7.443 
7.167 11424.370 0.000 0.000 0.000 7.454 
7.177 11510.294 0.000 0.000 0.000 7.464 
7.187 11486.608 0.000 0.000 0.000 7.475 
7.197 11460.569 0.000 0.000 0.000 7.485 
7.207 11445.658 0.000 0.000 0.000 7.495 
7.217 11487.492 0.000 0.000 0.000 7.506 
7.227 11412.059 0.000 0.000 0.000 7.516 
7.237 11419.003 0.000 0.000 0.000 7.527 
7.247 11463.377 0.000 0.000 0.000 7.537 
7.257 11387.910 0.000 0.000 0.000 7.548 
7.267 11351.619 0.000 0.000 0.000 7.558 
7.277 11339.305 0.000 0.000 0.000 7.568 
7.287 11376.467 0.000 0.000 0.000 7.579 
7.297 11366.780 0.000 0.000 0.000 7.589 
7.307 11402.072 0.000 0.000 0.000 7.600 
7.317 11429.031 0.000 0.000 0.000 7.610 
7.327 11242.341 0.000 0.000 0.000 7.620 
7.337 11410.108 0.000 0.000 0.000 7.631 
7.347 11398.455 0.000 0.000 0.000 7.641 
7.357 11390.920 0.000 0.000 0.000 7.652 
7.367 11444.539 0.000 0.000 0.000 7.662 
7.377 11510.617 0.000 0.000 0.000 7.672 
7.387 11408.116 0.000 0.000 0.000 7.683 
7.397 11397.692 0.000 0.000 0.000 7.693 
7.407 11296.688 0.000 0.000 0.000 7.704 
7.417 11461.008 0.000 0.000 0.000 7.714 
7.427 11345.983 0.000 0.000 0.000 7.725 
7.437 11329.699 0.000 0.000 0.000 7.735 
7.447 11359.385 0.000 0.000 0.000 7.745 
7.457 11321.686 0.000 0.000 0.000 7.756 
7.467 11410.787 0.000 0.000 0.000 7.766 
7.477 11372.543 0.000 0.000 0.000 7.777 
7.487 11352.255 0.000 0.000 0.000 7.787 
7.497 11344.610 0.000 0.000 0.000 7.797 
7.508 11285.561 0.000 0.000 0.000 7.808 
7.518 11399.606 0.000 0.000 0.000 7.818 
7.528 11355.470 0.000 0.000 0.000 7.829 
7.538 11407.193 0.000 0.000 0.000 7.839 
7.548 11359.175 0.000 0.000 0.000 7.849 
7.558 11294.920 0.000 0.000 0.000 7.860 
7.568 11299.263 0.000 0.000 0.000 7.870 
7.578 11450.500 0.000 0.000 0.000 7.881 
7.588 11396.546 0.000 0.000 0.000 7.891 
7.598 11341.993 0.000 0.000 0.000 7.902 
7.608 11319.966 0.000 0.000 0.000 7.912 
7.618 11332.261 0.000 0.000 0.000 7.922 
7.628 11294.567 0.000 0.000 0.000 7.933 
7.638 11430.064 0.000 0.000 0.000 7.943 
7.648 11408.091 0.000 0.000 0.000 7.954 
7.658 11393.025 0.000 0.000 0.000 7.964 
7.668 11338.648 0.000 0.000 0.000 7.974 
7.678 11356.280 0.000 0.000 0.000 7.985 
7.688 11246.470 0.000 0.000 0.000 7.995 
7.698 11377.413 0.000 0.000 0.000 8.006 
7.708 11347.271 0.000 0.000 0.000 8.016 
7.718 11403.302 0.000 0.000 0.000 8.026 
7.728 11304.518 0.000 0.000 0.000 8.037 
7.738 11191.451 0.000 0.000 0.000 8.047 
7.748 11296.458 0.000 0.000 0.000 8.058 
7.758 11365.984 0.000 0.000 0.000 8.068 
7.768 11351.618 0.000 0.000 0.000 8.078 
7.778 11402.767 0.000 0.000 0.000 8.089 
7.788 11205.951 0.000 0.000 0.000 8.099 
7.798 11307.551 0.000 0.000 0.000 8.110 
7.808 11375.441 0.000 0.000 0.000 8.120 
7.818 11250.653 0.000 0.000 0.000 8.131 
7.828 11263.534 0.000 0.000 0.000 8.141 
7.838 11203.345 0.000 0.000 0.000 8.151 
7.848 11290.232 0.000 0.000 0.000 8.162 
7.858 11383.107 0.000 0.000 0.000 8.172 
7.868 11377.708 0.000 0.000 0.000 8.183 
7.878 11280.040 0.000 0.000 0.000 8.193 
7.888 11345.027 0.000 0.000 0.000 8.203 
7.898 11274.157 0.000 0.000 0.000 8.214 
7.908 11244.099 0.000 0.000 0.000 8.224 
7.918 11364.839 0.000 0.000 0.000 8.235 
7.928 11252.214 0.000 0.000 0.000 8.245 
7.938 11290.851 0.000 0.000 0.000 8.255 
7.948 11211.213 0.000 0.000 0.000 8.266 
7.958 11254.775 0.000 0.000 0.000 8.276 
7.968 11234.991 0.000 0.000 0.000 8.287 
7.978 11258.222 0.000 0.000 0.000 8.297 
7.988 11201.452 0.000 0.000 0.000 8.308 
7.998 11288.760 0.000 0.000 0.000 8.318 
8.008 11297.733 0.000 0.000 0.000 8.328 
8.018 11281.528 0.000 0.000 0.000 8.339 
8.028 11313.514 0.000 0.000 0.000 8.349 
8.038 11369.688 0.000 0.000 0.000 8.360 
8.048 11214.672 0.000 0.000 0.000 8.370 
8.058 11199.782 0.000 0.000 0.000 8.380 
8.068 11280.803 0.000 0.000 0.000 8.391 
8.078 11329.213 0.000 0.000 0.000 8.401 
8.088 11337.138 0.000 0.000 0.000 8.412 
8.098 11242.756 0.000 0.000 0.000 8.422 
8.108 11170.880 0.000 0.000 0.000 8.432 
8.118 11168.189 0.000 0.000 0.000 8.443 
8.128 11224.470 0.000 0.000 0.000 8.453 
8.138 11180.790 0.000 0.000 0.000 8.464 
8.148 11200.391 0.000 0.000 0.000 8.474 
8.158 11309.097 0.000 0.000 0.000 8.484 
8.168 11219.000 0.000 0.000 0.000 8.495 
8.178 11139.608 0.000 0.000 0.000 8.505 
8.188 11340.124 0.000 0.000 0.000 8.516 
8.198 11351.630 0.000 0.000 0.000 8.526 
8.208 11354.525 0.000 0.000 0.000 8.537 
8.218 11182.621 0.000 0.000 0.000 8.547 
8.228 11264.201 0.000 0.000 0.000 8.557 
8.238 11235.515 0.000 0.000 0.000 8.568 
8.248 11236.584 0.000 0.000 0.000 8.578 
8.258 11164.799 0.000 0.000 0.000 8.589 
8.268 11265.280 0.000 0.000 0.000 8.599 
8.278 11119.082 0.000 0.000 0.000 8.609 
8.288 11246.367 0.000 0.000 0.000 8.620 
8.298 11189.315 0.000 0.000 0.000 8.630 
8.308 11268.270 0.000 0.000 0.000 8.641 
8.318 11280.142 0.000 0.000 0.000 8.651 
8.328 11261.460 0.000 0.000 0.000 8.661 
8.338 11224.602 0.000 0.000 0.000 8.672 
8.348 11191.584 0.000 0.000 0.000 8.682 
8.358 11257.167 0.000 0.000 0.000 8.693 
8.368 11137.198 0.000 0.000 0.000 8.703 
8.378 11171.572 0.000 0.000 0.000 8.714 
8.388 11265.500 0.000 0.000 0.000 8.724 
8.398 11232.387 0.000 0.000 0.000 8.734 
8.408 11190.134 0.000 0.000 0.000 8.745 
8.418 11148.283 0.000 0.000 0.000 8.755 
8.428 11202.363 0.000 0.000 0.000 8.766 
8.438 11140.751 0.000 0.000 0.000 8.776 
8.448 11175.234 0.000 0.000 0.000 8.786 
8.458 11020.821 0.000 0.000 0.000 8.797 
8.468 11189.110 0.000 0.000 0.000 8.807 
8.478 11111.532 0.000 0.000 0.000 8.818 
8.488 11134.254 0.000 0.000 0.000 8.828 
8.498 11184.160 0.000 0.000 0.000 8.838 
8.509 11107.325 0.000 0.000 0.000 8.849 
8.519 11151.072 0.000 0.000 0.000 8.859 
8.529 11139.578 0.000 0.000 0.000 8.870 
8.539 11075.523 0.000 0.000 0.000 8.880 
8.549 11176.576 0.000 0.000 0.000 8.890 
8.559 11040.868 0.000 0.000 0.000 8.901 
8.569 11078.112 0.000 0.000 0.000 8.911 
8.579 10990.908 0.000 0.000 0.000 8.922 
8.589 11146.385 0.000 0.000 0.000 8.932 
8.599 11132.959 0.000 0.000 0.000 8.943 
8.609 11084.028 0.000 0.000 0.000 8.953 
8.619 11198.766 0.000 0.000 0.000 8.963 
8.629 11198.756 0.000 0.000 0.000 8.974 
8.639 11073.925 0.000 0.000 0.000 8.984 
8.649 11216.345 0.000 0.000 0.000 8.995 
8.659 11131.305 0.000 0.000 0.000 9.005 
8.669 10998.590 0.000 0.000 0.000 9.015 
8.679 11083.538 0.000 0.000 0.000 9.026 
8.689 11084.557 0.000 0.000 0.000 9.036 
8.699 10949.075 0.000 0.000 0.000 9.047 
8.709 10960.342 0.000 0.000 0.000 9.057 
8.719 11156.432 0.000 0.000 0.000 9.067 
8.729 11063.944 0.000 0.000 0.000 9.078 
8.739 11140.897 0.000 0.000 0.000 9.088 
8.749 11054.482 0.000 0.000 0.000 9.099 
8.759 11089.056 0.000 0.000 0.000 9.109 
8.769 11080.749 0.000 0.000 0.000 9.120 
8.779 11208.526 0.000 0.000 0.000 9.130 
8.789 11101.208 0.000 0.000 0.000 9.140 
8.799 11003.957 0.000 0.000 0.000 9.151 
8.809 11067.722 0.000 0.000 0.000 9.161 
8.819 11044.752 0.000 0.000 0.000 9.172 
8.829 11009.216 0.000 0.000 0.000 9.182 
8.839 11008.628 0.000 0.000 0.000 9.192 
8.849 11079.893 0.000 0.000 0.000 9.203 
8.859 11009.544 0.000 0.000 0.000 9.213 
8.869 11136.373 0.000 0.000 0.000 9.224 
8.879 11028.625 0.000 0.000 0.000 9.234 
8.889 11010.833 0.000 0.000 0.000 9.244 
8.899 11005.531 0.000 0.000 0.000 9.255 
8.909 11094.150 0.000 0.000 0.000 9.265 
8.919 10948.315 0.000 0.000 0.000 9.276 
8.929 10937.398 0.000 0.000 0.000 9.286 
8.939 11035.414 0.000 0.000 0.000 9.296 
8.949 11070.747 0.000 0.000 0.000 9.307 
8.959 11006.668 0.000 0.000 0.000 9.317 
8.969 10962.851 0.000 0.000 0.000 9.328 
8.979 10921.012 0.000 0.000 0.000 9.338 
8.989 11038.101 0.000 0.000 0.000 9.349 
8.999 10994.094 0.000 0.000 0.000 9.359 
9.009 11007.993 0.000 0.000 0.000 9.369 
9.019 11034.645 0.000 0.000 0.000 9.380 
9.029 10959.570 0.000 0.000 0.000 9.390 
9.039 10927.818 0.000 0.000 0.000 9.401 
9.049 11049.814 0.000 0.000 0.000 9.411 
9.059 11000.044 0.000 0.000 0.000 9.421 
9.069 10847.532 0.000 0.000 0.000 9.432 
9.079 10965.469 0.000 0.000 0.000 9.442 
9.089 11064.627 0.000 0.000 0.000 9.453 
9.099 10960.501 0.000 0.000 0.000 9.463 
9.109 10998.126 0.000 0.000 0.000 9.473 
9.119 10901.805 0.000 0.000 0.000 9.484 
9.129 11040.557 0.000 0.000 0.000 9.494 
9.139 10979.725 0.000 0.000 0.000 9.505 
9.149 11013.411 0.000 0.000 0.000 9.515 
9.159 10937.096 0.000 0.000 0.000 9.526 
9.169 11126.680 0.000 0.000 0.000 9.536 
9.179 10992.507 0.000 0.000 0.000 9.546 
9.189 11013.975 0.000 0.000 0.000 9.557 
9.199 10917.748 0.000 0.000 0.000 9.567 
9.209 10819.761 0.000 0.000 0.000 9.578 
9.219 10865.475 0.000 0.000 0.000 9.588 
9.229 10919.186 0.000 0.000 0.000 9.598 
9.239 10942.342 0.000 0.000 0.000 9.609 
9.249 11064.327 0.000 0.000 0.000 9.619 
9.259 10904.706 0.000 0.000 0.000 9.630 
9.269 10981.270 0.000 0.000 0.000 9.640 
9.279 10914.225 0.000 0.000 0.000 9.650 
9.289 10871.622 0.000 0.000 0.000 9.661 
9.299 10928.936 0.000 0.000 0.000 9.671 
9.309 10883.179 0.000 0.000 0.000 9.682 
9.319 10807.333 0.000 0.000 0.000 9.692 
9.329 10984.619 0.000 0.000 0.000 9.703 
9.339 10769.733 0.000 0.000 0.000 9.713 
9.349 10934.200 0.000 0.000 0.000 9.723 
9.359 10901.495 0.000 0.000 0.000 9.734 
9.369 10830.281 0.000 0.000 0.000 9.744 
9.379 10803.483 0.000 0.000 0.000 9.755 
9.389 10834.853 0.000 0.000 0.000 9.765 
9.399 10876.353 0.000 0.000 0.000 9.775 
9.409 10923.582 0.000 0.000 0.000 9.786 
9.419 10807.930 0.000 0.000 0.000 9.796 
9.429 10810.576 0.000 0.000 0.000 9.807 
9.439 10827.896 0.000 0.000 0.000 9.817 
9.449 10898.630 0.000 0.000 0.000 9.827 
9.459 10816.761 0.000 0.000 0.000 9.838 
9.469 10869.657 0.000 0.000 0.000 9.848 
9.479 10870.284 0.000 0.000 0.000 9.859 
9.489 10854.492 0.000 0.000 0.000 9.869 
9.499 10887.807 0.000 0.000 0.000 9.879 
9.510 10794.180 0.000 0.000 0.000 9.890 
9.520 10826.774 0.000 0.000 0.000 9.900 
9.530 10852.876 0.000 0.000 0.000 9.911 
9.540 10838.329 0.000 0.000 0.000 9.921 
9.550 10705.267 0.000 0.000 0.000 9.932 
9.560 10927.343 0.000 0.000 0.000 9.942 
9.570 10780.980 0.000 0.000 0.000 9.952 
9.580 10704.708 0.000 0.000 0.000 9.963 
9.590 10883.296 0.000 0.000 0.000 9.973 
9.600 10850.855 0.000 0.000 0.000 9.984 
9.610 10666.048 0.000 0.000 0.000 9.994 
9.620 10767.392 0.000 0.000 0.000 10.004 
9.630 10803.063 0.000 0.000 0.000 10.015 
9.640 10727.006 0.000 0.000 0.000 10.025 
9.650 10767.196 0.000 0.000 0.000 10.036 
9.660 10815.311 0.000 0.000 0.000 10.046 
9.670 10851.662 0.000 0.000 0.000 10.056 
9.680 10752.489 0.000 0.000 0.000 10.067 
9.690 10765.755 0.000 0.000 0.000 10.077 
9.700 10848.223 0.000 0.000 0.000 10.088 
9.710 10815.956 0.000 0.000 0.000 10.098 
9.720 10757.812 0.000 0.000 0.000 10.109 
9.730 10671.047 0.000 0.000 0.000 10.119 
9.740 10704.188 0.000 0.000 0.000 10.129 
9.750 10792.617 0.000 0.000 0.000 10.140 
9.760 10749.117 0.000 0.000 0.000 10.150 
9.770 10697.396 0.000 0.000 0.000 10.161 
9.780 10720.409 0.000 0.000 0.000 10.171 
9.790 10691.162 0.000 0.000 0.000 10.181 
9.800 10627.638 0.000 0.000 0.000 10.192 
9.810 10818.019 0.000 0.000 0.000 10.202 
9.820 10749.175 0.000 0.000 0.000 10.213 
9.830 10716.736 0.000 0.000 0.000 10.223 
9.840 10703.240 0.000 0.000 0.000 10.233 
9.850 10656.098 0.000 0.000 0.000 10.244 
9.860 10740.140 0.000 0.000 0.000 10.254 
9.870 10727.650 0.000 0.000 0.000 10.265 
9.880 10919.717 0.000 0.000 0.000 10.275 
9.890 10692.086 0.000 0.000 0.000 10.285 
9.900 10726.364 0.000 0.000 0.000 10.296 
9.910 10718.271 0.000 0.000 0.000 10.306 
9.920 10797.601 0.000 0.000 0.000 10.317 
9.930 10803.020 0.000 0.000 0.000 10.327 
9.940 10646.936 0.000 0.000 0.000 10.338 
9.950 10771.343 0.000 0.000 0.000 10.348 
9.960 10646.772 0.000 0.000 0.000 10.358 
9.970 10735.085 0.000 0.000 0.000 10.369 
9.980 10639.381 0.000 0.000 0.000 10.379 
9.990 10651.135 0.000 0.000 0.000 10.390 
10.000 10694.234 0.000 0.000 0.000 10.400 
"Specimen",1
"Specimen name:",""
"Width:",6.350000,"mm"
"Thickness:",1.524000,"mm"
"Length:",12.000000,"mm"
"Diameter:",5.000000,"um"
"Inner diameter:",0.500000,"mm"
"Outer diameter:",1.000000,"mm"
"Wall thickness:",0.500000,"mm"
"Area:",19.634954,"um*um"
"Linear density:",1.000000,"den"
"Sled weight:",9.806650,"N"
"Loading span:",0.000000,"mm"
"Support span:",1.000000,"mm"
"Span ratio:","2"
"Fixture type:","3-point"
"Comment:",""
"Included"
"Time sec","Stress Pa","Cycle Count","Total Cycle Count","Repetitions Count","Strain [Exten.] %"
0.000 -50.208 0.000 0.000 0.000 0.000 
0.010 85.680 0.000 0.000 0.000 0.010 
0.020 83.086 0.000 0.000 0.000 0.021 
0.030 21.438 0.000 0.000 0.000 0.031 
0.040 164.540 0.000 0.000 0.000 0.042 
0.050 59.322 0.000 0.000 0.000 0.052 
0.060 204.545 0.000 0.000 0.000 0.062 
0.070 203.919 0.000 0.000 0.000 0.073 
0.080 291.531 0.000 0.000 0.000 0.083 
0.090 248.560 0.000 0.000 0.000 0.094 
0.100 273.309 0.000 0.000 0.000 0.104 
0.110 361.294 0.000 0.000 0.000 0.115 
0.120 445.381 0.000 0.000 0.000 0.125 
0.130 545.357 0.000 0.000 0.000 0.135 
0.140 570.294 0.000 0.000 0.000 0.146 
0.150 558.542 0.000 0.000 0.000 0.156 
0.160 613.157 0.000 0.000 0.000 0.167 
0.170 618.169 0.000 0.000 0.000 0.177 
0.180 770.582 0.000 0.000 0.000 0.187 
0.190 733.818 0.000 0.000 0.000 0.198 
0.200 835.938 0.000 0.000 0.000 0.208 
0.210 750.149 0.000 0.000 0.000 0.219 
0.220 762.072 0.000 0.000 0.000 0.229 
0.230 827.112 0.000 0.000 0.000 0.239 
0.240 786.730 0.000 0.000 0.000 0.250 
0.250 954.388 0.000 0.000 0.000 0.260 
0.260 975.528 0.000 0.000 0.000 0.271 
0.270 1037.138 0.000 0.000 0.000 0.281 
0.280 1038.021 0.000 0.000 0.000 0.291 
0.290 1096.519 0.000 0.000 0.000 0.302 
0.300 1198.070 0.000 0.000 0.000 0.312 
0.310 1233.100 0.000 0.000 0.000 0.323 
0.320 1315.138 0.000 0.000 0.000 0.333 
0.330 1228.803 0.000 0.000 0.000 0.344 
0.340 1199.308 0.000 0.000 0.000 0.354 
0.350 1396.304 0.000 0.000 0.000 0.364 
0.360 1400.549 0.000 0.000 0.000 0.375 
0.370 1543.359 0.000 0.000 0.000 0.385 
0.380 1609.236 0.000 0.000 0.000 0.396 
0.390 1583.536 0.000 0.000 0.000 0.406 
0.400 1576.410 0.000 0.000 0.000 0.416 
0.410 1666.487 0.000 0.000 0.000 0.427 
0.420 1582.615 0.000 0.000 0.000 0.437 
0.430 1646.592 0.000 0.000 0.000 0.448 
0.440 1705.684 0.000 0.000 0.000 0.458 
0.450 1747.595 0.000 0.000 0.000 0.468 
0.460 1801.762 0.000 0.000 0.000 0.479 
0.470 1845.782 0.000 0.000 0.000 0.489 
0.480 1904.357 0.000 0.000 0.000 0.500 
0.490 1861.872 0.000 0.000 0.000 0.510 
0.501 1956.046 0.000 0.000 0.000 0.521 
0.511 1928.862 0.000 0.000 0.000 0.531 
0.521 1947.814 0.000 0.000 0.000 0.541 
0.531 2103.112 0.000 0.000 0.000 0.552 
0.541 2073.772 0.000 0.000 0.000 0.562 
0.551 2229.905 0.000 0.000 0.000 0.573 
0.561 2084.719 0.000 0.000 0.000 0.583 
0.571 2293.129 0.000 0.000 0.000 0.593 
0.581 2233.400 0.000 0.000 0.000 0.604 
0.591 2331.251 0.000 0.000 0.000 0.614 
0.601 2314.505 0.000 0.000 0.000 0.625 
0.611 2413.313 0.000 0.000 0.000 0.635 
0.621 2486.375 0.000 0.000 0.000 0.645 
0.631 2470.121 0.000 0.000 0.000 0.656 
0.641 2574.085 0.000 0.000 0.000 0.666 
0.651 2474.828 0.000 0.000 0.000 0.677 
0.661 2638.537 0.000 0.000 0.000 0.687 
0.671 2561.096 0.000 0.000 0.000 0.697 
0.681 2669.998 0.000 0.000 0.000 0.708 
0.691 2691.515 0.000 0.000 0.000 0.718 
0.701 2729.185 0.000 0.000 0.000 0.729 
0.711 2856.096 0.000 0.000 0.000 0.739 
0.721 2913.021 0.000 0.000 0.000 0.750 
0.731 2855.318 0.000 0.000 0.000 0.760 
0.741 2843.271 0.000 0.000 0.000 0.770 
0.751 3039.840 0.000 0.000 0.000 0.781 
0.761 2913.313 0.000 0.000 0.000 0.791 
0.771 3100.179 0.000 0.000 0.000 0.802 
0.781 3052.921 0.000 0.000 0.000 0.812 
0.791 3088.698 0.000 0.000 0.000 0.822 
0.801 3251.557 0.000 0.000 0.000 0.833 
0.811 3284.425 0.000 0.000 0.000 0.843 
0.821 3204.816 0.000 0.000 0.000 0.854 
0.831 3214.783 0.000 0.000 0.000 0.864 
0.841 3212.516 0.000 0.000 0.000 0.874 
0.851 3273.253 0.000 0.000 0.000 0.885 
0.861 3431.744 0.000 0.000 0.000 0.895 
0.871 3447.729 0.000 0.000 0.000 0.906 
0.881 3474.522 0.000 0.000 0.000 0.916 
0.891 3468.660 0.000 0.000 0.000 0.927 
0.901 3528.821 0.000 0.000 0.000 0.937 
0.911 3667.329 0.000 0.000 0.000 0.947 
0.921 3539.189 0.000 0.000 0.000 0.958 
0.931 3637.977 0.000 0.000 0.000 0.968 
0.941 3711.953 0.000 0.000 0.000 0.979 
0.951 3745.339 0.000 0.000 0.000 0.989 
0.961 3740.593 0.000 0.000 0.000 0.999 
0.971 3745.949 0.000 0.000 0.000 1.010 
0.981 3970.655 0.000 0.000 0.000 1.020 
0.991 3886.723 0.000 0.000 0.000 1.031 
1.001 3935.484 0.000 0.000 0.000 1.041 
1.011 3871.697 0.000 0.000 0.000 1.051 
1.021 4050.031 0.000 0.000 0.000 1.062 
1.031 3987.345 0.000 0.000 0.000 1.072 
1.041 3981.683 0.000 0.000 0.000 1.083 
1.051 4193.806 0.000 0.000 0.000 1.093 
1.061 4061.028 0.000 0.000 0.000 1.104 
1.071 4287.234 0.000 0.000 0.000 1.114 
1.081 4352.296 0.000 0.000 0.000 1.124 
1.091 4316.632 0.000 0.000 0.000 1.135 
1.101 4315.480 0.000 0.000 0.000 1.145 
1.111 4318.142 0.000 0.000 0.000 1.156 
1.121 4456.537 0.000 0.000 0.000 1.166 
1.131 4518.528 0.000 0.000 0.000 1.176 
1.141 4589.558 0.000 0.000 0.000 1.187 
1.151 4502.856 0.000 0.000 0.000 1.197 
1.161 4563.783 0.000 0.000 0.000 1.208 
1.171 4606.927 0.000 0.000 0.000 1.218 
1.181 4625.705 0.000 0.000 0.000 1.228 
1.191 4710.752 0.000 0.000 0.000 1.239 
1.201 4682.981 0.000 0.000 0.000 1.249 
1.211 4785.473 0.000 0.000 0.000 1.260 
1.221 4763.186 0.000 0.000 0.000 1.270 
1.231 4737.951 0.000 0.000 0.000 1.280 
1.241 4942.305 0.000 0.000 0.000 1.291 
1.251 4855.175 0.000 0.000 0.000 1.301 
1.261 5078.945 0.000 0.000 0.000 1.312 
1.271 4855.816 0.000 0.000 0.000 1.322 
1.281 5077.647 0.000 0.000 0.000 1.333 
1.291 5037.624 0.000 0.000 0.000 1.343 
1.301 5124.949 0.000 0.000 0.000 1.353 
1.311 5113.414 0.000 0.000 0.000 1.364 
1.321 5230.419 0.000 0.000 0.000 1.374 
1.331 5298.786 0.000 0.000 0.000 1.385 
1.341 5278.921 0.000 0.000 0.000 1.395 
1.351 5323.095 0.000 0.000 0.000 1.405 
1.361 5343.549 0.000 0.000 0.000 1.416 
1.371 5467.365 0.000 0.000 0.000 1.426 
1.381 5517.597 0.000 0.000 0.000 1.437 
1.391 5542.210 0.000 0.000 0.000 1.447 
1.401 5470.223 0.000 0.000 0.000 1.457 
1.411 5534.961 0.000 0.000 0.000 1.468 
1.421 5457.971 0.000 0.000 0.000 1.478 
1.431 5696.999 0.000 0.000 0.000 1.489 
1.441 5790.131 0.000 0.000 0.000 1.499 
1.451 5665.905 0.000 0.000 0.000 1.510 
1.461 5649.978 0.000 0.000 0.000 1.520 
1.471 5756.650 0.000 0.000 0.000 1.530 
1.481 5740.424 0.000 0.000 0.000 1.541 
1.491 5847.142 0.000 0.000 0.000 1.551 
1.502 5833.080 0.000 0.000 0.000 1.562 
1.512 5874.773 0.000 0.000 0.000 1.572 
1.522 6071.741 0.000 0.000 0.000 1.582 
1.532 6045.980 0.000 0.000 0.000 1.593 
1.542 6065.298 0.000 0.000 0.000 1.603 
1.552 6052.616 0.000 0.000 0.000 1.614 
1.562 6161.719 0.000 0.000 0.000 1.624 
1.572 6147.439 0.000 0.000 0.000 1.634 
1.582 6189.291 0.000 0.000 0.000 1.645 
1.592 6273.848 0.000 0.000 0.000 1.655 
1.602 6263.768 0.000 0.000 0.000 1.666 
1.612 6294.394 0.000 0.000 0.000 1.676 
1.622 6374.789 0.000 0.000 0.000 1.686 
1.632 6568.097 0.000 0.000 0.000 1.697 
1.642 6445.860 0.000 0.000 0.000 1.707 
1.652 6553.034 0.000 0.000 0.000 1.718 
1.662 6464.752 0.000 0.000 0.000 1.728 
1.672 6613.376 0.000 0.000 0.000 1.739 
1.682 6525.582 0.000 0.000 0.000 1.749 
1.692 6687.037 0.000 0.000 0.000 1.759 
1.702 6686.712 0.000 0.000 0.000 1.770 
1.712 6751.455 0.000 0.000 0.000 1.780 
1.722 6829.454 0.000 0.000 0.000 1.791 
1.732 6754.744 0.000 0.000 0.000 1.801 
1.742 6743.613 0.000 0.000 0.000 1.811 
1.752 6898.271 0.000 0.000 0.000 1.822 
1.762 6866.651 0.000 0.000 0.000 1.832 
1.772 6919.997 0.000 0.000 0.000 1.843 
1.782 6943.938 0.000 0.000 0.000 1.853 
1.792 6980.697 0.000 0.000 0.000 1.863 
1.802 7020.766 0.000 0.000 0.000 1.874 
1.812 7151.396 0.000 0.000 0.000 1.884 
1.822 7261.114 0.000 0.000 0.000 1.895 
1.832 7222.534 0.000 0.000 0.000 1.905 
1.842 7329.004 0.000 0.000 0.000 1.916 
1.852 7249.362 0.000 0.000 0.000 1.926 
1.862 7429.413 0.000 0.000 0.000 1.936 
1.872 7420.379 0.000 0.000 0.000 1.947 
1.882 7516.263 0.000 0.000 0.000 1.957 
1.892 7455.000 0.000 0.000 0.000 1.968 
1.902 7629.381 0.000 0.000 0.000 1.978 
1.912 7481.507 0.000 0.000 0.000 1.988 
1.922 7492.882 0.000 0.000 0.000 1.999 
1.932 7616.004 0.000 0.000 0.000 2.009 
1.942 7581.263 0.000 0.000 0.000 2.020 
1.952 7682.040 0.000 0.000 0.000 2.030 
1.962 7563.461 0.000 0.000 0.000 2.040 
1.972 7767.955 0.000 0.000 0.000 2.051 
1.982 7811.988 0.000 0.000 0.000 2.061 
1.992 7835.335 0.000 0.000 0.000 2.072 
2.002 7837.288 0.000 0.000 0.000 2.082 
2.012 7970.344 0.000 0.000 0.000 2.092 
2.022 7940.729 0.000 0.000 0.000 2.103 
2.032 7997.319 0.000 0.000 0.000 2.113 
2.042 8046.016 0.000 0.000 0.000 2.124 
2.052 8085.718 0.000 0.000 0.000 2.134 
2.062 8029.423 0.000 0.000 0.000 2.145 
2.072 8240.381 0.000 0.000 0.000 2.155 
2.082 8208.335 0.000 0.000 0.000 2.165 
2.092 8137.462 0.000 0.000 0.000 2.176 
2.102 8302.150 0.000 0.000 0.000 2.186 
2.112 8324.272 0.000 0.000 0.000 2.197 
2.122 8401.739 0.000 0.000 0.000 2.207 
2.132 8433.407 0.000 0.000 0.000 2.217 
2.142 8477.413 0.000 0.000 0.000 2.228 
2.152 8437.101 0.000 0.000 0.000 2.238 
2.162 8579.327 0.000 0.000 0.000 2.249 
2.172 8443.829 0.000 0.000 0.000 2.259 
2.182 8600.237 0.000 0.000 0.000 2.269 
2.192 8635.283 0.000 0.000 0.000 2.280 
2.202 8607.992 0.000 0.000 0.000 2.290 
2.212 8748.847 0.000 0.000 0.000 2.301 
2.222 8782.140 0.000 0.000 0.000 2.311 
2.232 8820.085 0.000 0.000 0.000 2.322 
2.242 8801.775 0.000 0.000 0.000 2.332 
2.252 8924.050 0.000 0.000 0.000 2.342 
2.262 8875.408 0.000 0.000 0.000 2.353 
2.272 9080.374 0.000 0.000 0.000 2.363 
2.282 8943.578 0.000 0.000 0.000 2.374 
2.292 9019.317 0.000 0.000 0.000 2.384 
2.302 9126.704 0.000 0.000 0.000 2.394 
2.312 9098.125 0.000 0.000 0.000 2.405 
2.322 9102.871 0.000 0.000 0.000 2.415 
2.332 9296.827 0.000 0.000 0.000 2.426 
2.342 9292.570 0.000 0.000 0.000 2.436 
2.352 9222.904 0.000 0.000 0.000 2.446 
2.362 9295.674 0.000 0.000 0.000 2.457 
2.372 9359.104 0.000 0.000 0.000 2.467 
2.382 9440.967 0.000 0.000 0.000 2.478 
2.392 9432.058 0.000 0.000 0.000 2.488 
2.402 9540.764 0.000 0.000 0.000 2.498 
2.412 9513.469 0.000 0.000 0.000 2.509 
2.422 9509.673 0.000 0.000 0.000 2.519 
2.432 9595.553 0.000 0.000 0.000 2.530 
2.442 9710.817 0.000 0.000 0.000 2.540 
2.452 9680.293 0.000 0.000 0.000 2.551 
2.462 9665.014 0.000 0.000 0.000 2.561 
2.472 9714.913 0.000 0.000 0.000 2.571 
2.482 9758.915 0.000 0.000 0.000 2.582 
2.492 9738.833 0.000 0.000 0.000 2.592 
2.503 9810.285 0.000 0.000 0.000 2.603 
2.513 9896.946 0.000 0.000 0.000 2.613 
2.523 10107.637 0.000 0.000 0.000 2.623 
2.533 10012.530 0.000 0.000 0.000 2.634 
2.543 10065.072 0.000 0.000 0.000 2.644 
2.553 10027.084 0.000 0.000 0.000 2.655 
2.563 10031.617 0.000 0.000 0.000 2.665 
2.573 10130.446 0.000 0.000 0.000 2.675 
2.583 10283.835 0.000 0.000 0.000 2.686 
2.593 10190.327 0.000 0.000 0.000 2.696 
2.603 10254.547 0.000 0.000 0.000 2.707 
2.613 10355.177 0.000 0.000 0.000 2.717 
2.623 10301.120 0.000 0.000 0.000 2.728 
2.633 10392.028 0.000 0.000 0.000 2.738 
2.643 10334.234 0.000 0.000 0.000 2.748 
2.653 10365.898 0.000 0.000 0.000 2.759 
2.663 10430.174 0.000 0.000 0.000 2.769 
2.673 10480.670 0.000 0.000 0.000 2.780 
2.683 10611.081 0.000 0.000 0.000 2.790 
2.693 10632.327 0.000 0.000 0.000 2.800 
2.703 10657.125 0.000 0.000 0.000 2.811 
2.713 10638.571 0.000 0.000 0.000 2.821 
2.723 10697.828 0.000 0.000 0.000 2.832 
2.733 10743.977 0.000 0.000 0.000 2.842 
2.743 10844.794 0.000 0.000 0.000 2.852 
2.753 10774.883 0.000 0.000 0.000 2.863 
2.763 10846.048 0.000 0.000 0.000 2.873 
2.773 10885.534 0.000 0.000 0.000 2.884 
2.783 10956.086 0.000 0.000 0.000 2.894 
2.793 11071.257 0.000 0.000 0.000 2.905 
2.803 11100.348 0.000 0.000 0.000 2.915 
2.813 11059.038 0.000 0.000 0.000 2.925 
2.823 11055.452 0.000 0.000 0.000 2.936 
2.833 11197.907 0.000 0.000 0.000 2.946 
2.843 11154.240 0.000 0.000 0.000 2.957 
2.853 11250.804 0.000 0.000 0.000 2.967 
2.863 11332.357 0.000 0.000 0.000 2.977 
2.873 11340.327 0.000 0.000 0.000 2.988 
2.883 11310.636 0.000 0.000 0.000 2.998 
2.893 11350.167 0.000 0.000 0.000 3.009 
2.903 11457.213 0.000 0.000 0.000 3.019 
2.913 11462.562 0.000 0.000 0.000 3.029 
2.923 11595.092 0.000 0.000 0.000 3.040 
2.933 11512.528 0.000 0.000 0.000 3.050 
2.943 11600.934 0.000 0.000 0.000 3.061 
2.953 11595.671 0.000 0.000 0.000 3.071 
2.963 11602.688 0.000 0.000 0.000 3.081 
2.973 11786.874 0.000 0.000 0.000 3.092 
2.983 11780.884 0.000 0.000 0.000 3.102 
2.993 11821.988 0.000 0.000 0.000 3.113 
3.003 11774.835 0.000 0.000 0.000 3.123 
3.013 11790.596 0.000 0.000 0.000 3.134 
3.023 11768.810 0.000 0.000 0.000 3.144 
3.033 11801.600 0.000 0.000 0.000 3.154 
3.043 11715.880 0.000 0.000 0.000 3.165 
3.053 11691.309 0.000 0.000 0.000 3.175 
3.063 11833.267 0.000 0.000 0.000 3.186 
3.073 11629.506 0.000 0.000 0.000 3.196 
3.083 11744.406 0.000 0.000 0.000 3.206 
3.093 11734.573 0.000 0.000 0.000 3.217 
3.103 11719.536 0.000 0.000 0.000 3.227 
3.113 11659.883 0.000 0.000 0.000 3.238 
3.123 11682.037 0.000 0.000 0.000 3.248 
3.133 11674.850 0.000 0.000 0.000 3.258 
3.143 11664.146 0.000 0.000 0.000 3.269 
3.153 11568.762 0.000 0.000 0.000 3.279 
3.163 11752.155 0.000 0.000 0.000 3.290 
3.173 11635.465 0.000 0.000 0.000 3.300 
3.183 11624.855 0.000 0.000 0.000 3.311 
3.193 11676.381 0.000 0.000 0.000 3.321 
3.203 11602.818 0.000 0.000 0.000 3.331 
3.213 11553.406 0.000 0.000 0.000 3.342 
3.223 11568.142 0.000 0.000 0.000 3.352 
3.233 11526.085 0.000 0.000 0.000 3.363 
3.243 11558.770 0.000 0.000 0.000 3.373 
3.253 11635.323 0.000 0.000 0.000 3.383 
3.263 11600.293 0.000 0.000 0.000 3.394 
3.273 11538.472 0.000 0.000 0.000 3.404 
3.283 11587.366 0.000 0.000 0.000 3.415 
3.293 11478.713 0.000 0.000 0.000 3.425 
3.303 11424.906 0.000 0.000 0.000 3.435 
3.313 11540.486 0.000 0.000 0.000 3.446 
3.323 11446.591 0.000 0.000 0.000 3.456 
3.333 11612.773 0.000 0.000 0.000 3.467 
3.343 11567.989 0.000 0.000 0.000 3.477 
3.353 11569.435 0.000 0.000 0.000 3.487 
3.363 11501.360 0.000 0.000 0.000 3.498 
3.373 11625.234 0.000 0.000 0.000 3.508 
3.383 11504.089 0.000 0.000 0.000 3.519 
3.393 11440.620 0.000 0.000 0.000 3.529 
3.403 11592.979 0.000 0.000 0.000 3.540 
3.413 11555.510 0.000 0.000 0.000 3.550 
3.423 11537.154 0.000 0.000 0.000 3.560 
3.433 11537.981 0.000 0.000 0.000 3.571 
3.443 11450.697 0.000 0.000 0.000 3.581 
3.453 11541.294 0.000 0.000 0.000 3.592 
3.463 11557.157 0.000 0.000 0.000 3.602 
3.473 11526.123 0.000 0.000 0.000 3.612 
3.483 11519.170 0.000 0.000 0.000 3.623 
3.493 11544.063 0.000 0.000 0.000 3.633 
3.504 11574.424 0.000 0.000 0.000 3.644 
3.514 11470.425 0.000 0.000 0.000 3.654 
3.524 11549.064 0.000 0.000 0.000 3.664 
3.534 11544.564 0.000 0.000 0.000 3.675 
3.544 11482.070 0.000 0.000 0.000 3.685 
3.554 11607.386 0.000 0.000 0.000 3.696 
3.564 11594.727 0.000 0.000 0.000 3.706 
3.574 11518.557 0.000 0.000 0.000 3.717 
3.584 11577.499 0.000 0.000 0.000 3.727 
3.594 11553.460 0.000 0.000 0.000 3.737 
3.604 11656.578 0.000 0.000 0.000 3.748 
3.614 11519.919 0.000 0.000 0.000 3.758 
3.624 11508.974 0.000 0.000 0.000 3.769 
3.634 11533.310 0.000 0.000 0.000 3.779 
3.644 11469.697 0.000 0.000 0.000 3.789 
3.654 11555.579 0.000 0.000 0.000 3.800 
3.664 11534.479 0.000 0.000 0.000 3.810 
3.674 11560.737 0.000 0.000 0.000 3.821 
3.684 11565.505 0.000 0.000 0.000 3.831 
3.694 11548.259 0.000 0.000 0.000 3.841 
3.704 11565.668 0.000 0.000 0.000 3.852 
3.714 11532.656 0.000 0.000 0.000 3.862 
3.724 11461.388 0.000 0.000 0.000 3.873 
3.734 11529.215 0.000 0.000 0.000 3.883 
3.744 11604.835 0.000 0.000 0.000 3.893 
3.754 11623.941 0.000 0.000 0.000 3.904 
3.764 11556.301 0.000 0.000 0.000 3.914 
3.774 11516.095 0.000 0.000 0.000 3.925 
3.784 11508.593 0.000 0.000 0.000 3.935 
3.794 11629.363 0.000 0.000 0.000 3.946 
3.804 11531.495 0.000 0.000 0.000 3.956 
3.814 11535.036 0.000 0.000 0.000 3.966 
3.824 11519.132 0.000 0.000 0.000 3.977 
3.834 11559.823 0.000 0.000 0.000 3.987 
3.844 11591.444 0.000 0.000 0.000 3.998 
3.854 11604.154 0.000 0.000 0.000 4.008 
3.864 11688.186 0.000 0.000 0.000 4.018 
3.874 11533.372 0.000 0.000 0.000 4.029 
3.884 11593.571 0.000 0.000 0.000 4.039 
3.894 11538.562 0.000 0.000 0.000 4.050 
3.904 11611.808 0.000 0.000 0.000 4.060 
3.914 11618.132 0.000 0.000 0.000 4.070 
3.924 11617.348 0.000 0.000 0.000 4.081 
3.934 11595.283 0.000 0.000 0.000 4.091 
3.944 11580.081 0.000 0.000 0.000 4.102 
3.954 11499.490 0.000 0.000 0.000 4.112 
3.964 11515.075 0.000 0.000 0.000 4.123 
3.974 11620.901 0.000 0.000 0.000 4.133 
3.984 11591.870 0.000 0.000 0.000 4.143 
3.994 11590.672 0.000 0.000 0.000 4.154 
4.004 11480.439 0.000 0.000 0.000 4.164 
4.014 11638.182 0.000 0.000 0.000 4.175 
4.024 11551.651 0.000 0.000 0.000 4.185 
4.034 11664.006 0.000 0.000 0.000 4.195 
4.044 11531.471 0.000 0.000 0.000 4.206 
4.054 11467.953 0.000 0.000 0.000 4.216 
4.064 11565.586 0.000 0.000 0.000 4.227 
4.074 11544.425 0.000 0.000 0.000 4.237 
4.084 11606.223 0.000 0.000 0.000 4.247 
4.094 11577.908 0.000 0.000 0.000 4.258 
4.104 11532.239 0.000 0.000 0.000 4.268 
4.114 11453.133 0.000 0.000 0.000 4.279 
4.124 11619.821 0.000 0.000 0.000 4.289 
4.134 11619.665 0.000 0.000 0.000 4.299 
4.144 11568.205 0.000 0.000 0.000 4.310 
4.154 11504.276 0.000 0.000 0.000 4.320 
4.164 11576.266 0.000 0.000 0.000 4.331 
4.174 11645.303 0.000 0.000 0.000 4.341 
4.184 11602.972 0.000 0.000 0.000 4.352 
4.194 11528.214 0.000 0.000 0.000 4.362 
4.204 11603.230 0.000 0.000 0.000 4.372 
4.214 11513.373 0.000 0.000 0.000 4.383 
4.224 11597.495 0.000 0.000 0.000 4.393 
4.234 11719.421 0.000 0.000 0.000 4.404 
4.244 11588.719 0.000 0.000 0.000 4.414 
4.254 11595.327 0.000 0.000 0.000 4.424 
4.264 11612.221 0.000 0.000 0.000 4.435 
4.274 11607.346 0.000 0.000 0.000 4.445 
4.284 11645.402 0.000 0.000 0.000 4.456 
4.294 11508.328 0.000 0.000 0.000 4.466 
4.304 11593.377 0.000 0.000 0.000 4.476 
4.314 11620.506 0.000 0.000 0.000 4.487 
4.324 11609.741 0.000 0.000 0.000 4.497 
4.334 11566.313 0.000 0.000 0.000 4.508 
4.344 11695.433 0.000 0.000 0.000 4.518 
4.354 11548.711 0.000 0.000 0.000 4.529 
4.364 11575.474 0.000 0.000 0.000 4.539 
4.374 11526.787 0.000 0.000 0.000 4.549 
4.384 11614.413 0.000 0.000 0.000 4.560 
4.394 11546.702 0.000 0.000 0.000 4.570 
4.404 11696.005 0.000 0.000 0.000 4.581 
4.414 11630.277 0.000 0.000 0.000 4.591 
4.424 11571.282 0.000 0.000 0.000 4.601 
4.434 11586.673 0.000 0.000 0.000 4.612 
4.444 11699.883 0.000 0.000 0.000 4.622 
4.454 11598.249 0.000 0.000 0.000 4.633 
4.464 11707.442 0.000 0.000 0.000 4.643 
4.474 11473.451 0.000 0.000 0.000 4.653 
4.484 11614.742 0.000 0.000 0.000 4.664 
4.494 11568.881 0.000 0.000 0.000 4.674 
4.505 11768.022 0.000 0.000 0.000 4.685 
4.515 11628.922 0.000 0.000 0.000 4.695 
4.525 11635.047 0.000 0.000 0.000 4.706 
4.535 11655.377 0.000 0.000 0.000 4.716 
4.545 11699.728 0.000 0.000 0.000 4.726 
4.555 11628.622 0.000 0.000 0.000 4.737 
4.565 11533.129 0.000 0.000 0.000 4.747 
4.575 11554.263 0.000 0.000 0.000 4.758 
4.585 11727.989 0.000 0.000 0.000 4.768 
4.595 11517.651 0.000 0.000 0.000 4.778 
4.605 11499.903 0.000 0.000 0.000 4.789 
4.615 11581.452 0.000 0.000 0.000 4.799 
4.625 11563.429 0.000 0.000 0.000 4.810 
4.635 11558.965 0.000 0.000 0.000 4.820 
4.645 11572.583 0.000 0.000 0.000 4.830 
4.655 11634.670 0.000 0.000 0.000 4.841 
4.665 11589.009 0.000 0.000 0.000 4.851 
4.675 11666.540 0.000 0.000 0.000 4.862 
4.685 11551.908 0.000 0.000 0.000 4.872 
4.695 11529.840 0.000 0.000 0.000 4.882 
4.705 11675.909 0.000 0.000 0.000 4.893 
4.715 11620.437 0.000 0.000 0.000 4.903 
4.725 11603.718 0.000 0.000 0.000 4.914 
4.735 11680.663 0.000 0.000 0.000 4.924 
4.745 11524.608 0.000 0.000 0.000 4.935 
4.755 11568.259 0.000 0.000 0.000 4.945 
4.765 11606.748 0.000 0.000 0.000 4.955 
4.775 11579.831 0.000 0.000 0.000 4.966 
4.785 11598.619 0.000 0.000 0.000 4.976 
4.795 11653.815 0.000 0.000 0.000 4.987 
4.805 11623.330 0.000 0.000 0.000 4.997 
4.815 11598.006 0.000 0.000 0.000 5.007 
4.825 11572.285 0.000 0.000 0.000 5.018 
4.835 11614.697 0.000 0.000 0.000 5.028 
4.845 11721.340 0.000 0.000 0.000 5.039 
4.855 11545.553 0.000 0.000 0.000 5.049 
4.865 11657.843 0.000 0.000 0.000 5.059 
4.875 11586.282 0.000 0.000 0.000 5.070 
4.885 11604.306 0.000 0.000 0.000 5.080 
4.895 11634.944 0.000 0.000 0.000 5.091 
4.905 11574.066 0.000 0.000 0.000 5.101 
4.915 11702.625 0.000 0.000 0.000 5.112 
4.925 11552.731 0.000 0.000 0.000 5.122 
4.935 11633.273 0.000 0.000 0.000 5.132 
4.945 11611.977 0.000 0.000 0.000 5.143 
4.955 11611.832 0.000 0.000 0.000 5.153 
4.965 11660.117 0.000 0.000 0.000 5.164 
4.975 11660.922 0.000 0.000 0.000 5.174 
4.985 11698.848 0.000 0.000 0.000 5.184 
4.995 11671.775 0.000 0.000 0.000 5.195 
5.005 11653.338 0.000 0.000 0.000 5.205 
5.015 11641.405 0.000 0.000 0.000 5.216 
5.025 11657.853 0.000 0.000 0.000 5.226 
5.035 11623.405 0.000 0.000 0.000 5.236 
5.045 11657.108 0.000 0.000 0.000 5.247 
5.055 11514.509 0.000 0.000 0.000 5.257 
5.065 11490.616 0.000 0.000 0.000 5.268 
5.075 11672.494 0.000 0.000 0.000 5.278 
5.085 11618.161 0.000 0.000 0.000 5.288 
5.095 11613.126 0.000 0.000 0.000 5.299 
5.105 11657.219 0.000 0.000 0.000 5.309 
5.115 11650.075 0.000 0.000 0.000 5.320 
5.125 11695.015 0.000 0.000 0.000 5.330 
5.135 11584.525 0.000 0.000 0.000 5.341 
5.145 11608.972 0.000 0.000 0.000 5.351 
5.155 11683.448 0.000 0.000 0.000 5.361 
5.165 11585.169 0.000 0.000 0.000 5.372 
5.175 11587.660 0.000 0.000 0.000 5.382 
5.185 11600.643 0.000 0.000 0.000 5.393 
5.195 11634.201 0.000 0.000 0.000 5.403 
5.205 11739.203 0.000 0.000 0.000 5.413 
5.215 11662.925 0.000 0.000 0.000 5.424 
5.225 11633.417 0.000 0.000 0.000 5.434 
5.235 11558.899 0.000 0.000 0.000 5.445 
5.245 11606.782 0.000 0.000 0.000 5.455 
5.255 11497.181 0.000 0.000 0.000 5.465 
5.265 11653.626 0.000 0.000 0.000 5.476 
5.275 11608.681 0.000 0.000 0.000 5.486 
5.285 11587.447 0.000 0.000 0.000 5.497 
5.295 11603.493 0.000 0.000 0.000 5.507 
5.305 11574.209 0.000 0.000 0.000 5.518 
5.315 11668.945 0.000 0.000 0.000 5.528 
5.325 11644.494 0.000 0.000 0.000 5.538 
5.335 11671.485 0.000 0.000 0.000 5.549 
5.345 11593.246 0.000 0.000 0.000 5.559 
5.355 11602.318 0.000 0.000 0.000 5.570 
5.365 11545.434 0.000 0.000 0.000 5.580 
5.375 11639.894 0.000 0.000 0.000 5.590 
5.385 11664.421 0.000 0.000 0.000 5.601 
5.395 11602.859 0.000 0.000 0.000 5.611 
5.405 11483.737 0.000 0.000 0.000 5.622 
5.415 11524.245 0.000 0.000 0.000 5.632 
5.425 11657.726 0.000 0.000 0.000 5.642 
5.435 11497.649 0.000 0.000 0.000 5.653 
5.445 11544.634 0.000 0.000 0.000 5.663 
5.455 11596.629 0.000 0.000 0.000 5.674 
5.465 11673.129 0.000 0.000 0.000 5.684 
5.475 11675.248 0.000 0.000 0.000 5.694 
5.485 11616.895 0.000 0.000 0.000 5.705 
5.495 11679.646 0.000 0.000 0.000 5.715 
5.506 11605.103 0.000 0.000 0.000 5.726 
5.516 11591.608 0.000 0.000 0.000 5.736 
5.526 11600.389 0.000 0.000 0.000 5.747 
5.536 11571.031 0.000 0.000 0.000 5.757 
5.546 11512.906 0.000 0.000 0.000 5.767 
5.556 11644.587 0.000 0.000 0.000 5.778 
5.566 11661.255 0.000 0.000 0.000 5.788 
5.576 11571.969 0.000 0.000 0.000 5.799 
5.586 11520.429 0.000 0.000 0.000 5.809 
5.596 11578.636 0.000 0.000 0.000 5.819 
5.606 11617.889 0.000 0.000 0.000 5.830 
5.616 11630.596 0.000 0.000 0.000 5.840 
5.626 11610.034 0.000 0.000 0.000 5.851 
5.636 11578.602 0.000 0.000 0.000 5.861 
5.646 11676.311 0.000 0.000 0.000 5.871 
5.656 11516.099 0.000 0.000 0.000 5.882 
5.666 11709.465 0.000 0.000 0.000 5.892 
5.676 11612.071 0.000 0.000 0.000 5.903 
5.686 11511.801 0.000 0.000 0.000 5.913 
5.696 11753.102 0.000 0.000 0.000 5.924 
5.706 11637.371 0.000 0.000 0.000 5.934 
5.716 11533.868 0.000 0.000 0.000 5.944 
5.726 11506.511 0.000 0.000 0.000 5.955 
5.736 11550.834 0.000 0.000 0.000 5.965 
5.746 11625.614 0.000 0.000 0.000 5.976 
5.756 11523.234 0.000 0.000 0.000 5.986 
5.766 11549.406 0.000 0.000 0.000 5.996 
5.776 11552.698 0.000 0.000 0.000 6.007 
5.786 11631.018 0.000 0.000 0.000 6.017 
5.796 11518.746 0.000 0.000 0.000 6.028 
5.806 11589.448 0.000 0.000 0.000 6.038 
5.816 11543.811 0.000 0.000 0.000 6.048 
5.826 11646.772 0.000 0.000 0.000 6.059 
5.836 11526.806 0.000 0.000 0.000 6.069 
5.846 11589.071 0.000 0.000 0.000 6.080 
5.856 11535.399 0.000 0.000 0.000 6.090 
5.866 11601.287 0.000 0.000 0.000 6.101 
5.876 11622.006 0.000 0.000 0.000 6.111 
5.886 11555.321 0.000 0.000 0.000 6.121 
5.896 11575.606 0.000 0.000 0.000 6.132 
5.906 11554.646 0.000 0.000 0.000 6.142 
5.916 11419.726 0.000 0.000 0.000 6.153 
5.926 11555.627 0.000 0.000 0.000 6.163 
5.936 11655.666 0.000 0.000 0.000 6.173 
5.946 11574.166 0.000 0.000 0.000 6.184 
5.956 11562.270 0.000 0.000 0.000 6.194 
5.966 11548.756 0.000 0.000 0.000 6.205 
5.976 11580.503 0.000 0.000 0.000 6.215 
5.986 11523.146 0.000 0.000 0.000 6.225 
5.996 11485.162 0.000 0.000 0.000 6.236 
6.006 11614.291 0.000 0.000 0.000 6.246 
6.016 11584.892 0.000 0.000 0.000 6.257 
6.026 11535.660 0.000 0.000 0.000 6.267 
6.036 11442.929 0.000 0.000 0.000 6.277 
6.046 11440.889 0.000 0.000 0.000 6.288 
6.056 11716.070 0.000 0.000 0.000 6.298 
6.066 11570.814 0.000 0.000 0.000 6.309 
6.076 11582.138 0.000 0.000 0.000 6.319 
6.086 11607.769 0.000 0.000 0.000 6.330 
6.096 11572.605 0.000 0.000 0.000 6.340 
6.106 11583.721 0.000 0.000 0.000 6.350 
6.116 11472.233 0.000 0.000 0.000 6.361 
6.126 11517.088 0.000 0.000 0.000 6.371 
6.136 11591.072 0.000 0.000 0.000 6.382 
6.146 11653.431 0.000 0.000 0.000 6.392 
6.156 11515.576 0.000 0.000 0.000 6.402 
6.166 11481.511 0.000 0.000 0.000 6.413 
6.176 11603.995 0.000 0.000 0.000 6.423 
6.186 11594.683 0.000 0.000 0.000 6.434 
6.196 11595.914 0.000 0.000 0.000 6.444 
6.206 11528.531 0.000 0.000 0.000 6.454 
6.216 11548.488 0.000 0.000 0.000 6.465 
6.226 11510.264 0.000 0.000 0.000 6.475 
6.236 11562.345 0.000 0.000 0.000 6.486 
6.246 11517.602 0.000 0.000 0.000 6.496 
6.256 11453.541 0.000 0.000 0.000 6.507 
6.266 11617.998 0.000 0.000 0.000 6.517 
6.276 11630.940 0.000 0.000 0.000 6.527 
6.286 11516.869 0.000 0.000 0.000 6.538 
6.296 11506.030 0.000 0.000 0.000 6.548 
6.306 11504.228 0.000 0.000 0.000 6.559 
6.316 11544.833 0.000 0.000 0.000 6.569 
6.326 11532.837 0.000 0.000 0.000 6.579 
6.336 11571.750 0.000 0.000 0.000 6.590 
6.346 11490.063 0.000 0.000 0.000 6.600 
6.356 11486.430 0.000 0.000 0.000 6.611 
6.366 11482.688 0.000 0.000 0.000 6.621 
6.376 11477.419 0.000 0.000 0.000 6.631 
6.386 11447.157 0.000 0.000 0.000 6.642 
6.396 11542.861 0.000 0.000 0.000 6.652 
6.406 11554.331 0.000 0.000 0.000 6.663 
6.416 11567.979 0.000 0.000 0.000 6.673 
6.426 11606.987 0.000 0.000 0.000 6.683 
6.436 11535.523 0.000 0.000 0.000 6.694 
6.446 11536.747 0.000 0.000 0.000 6.704 
6.456 11539.752 0.000 0.000 0.000 6.715 
6.466 11658.745 0.000 0.000 0.000 6.725 
6.476 11538.377 0.000 0.000 0.000 6.736 
6.486 11605.582 0.000 0.000 0.000 6.746 
6.496 11576.081 0.000 0.000 0.000 6.756 
6.507 11536.294 0.000 0.000 0.000 6.767 
6.517 11446.603 0.000 0.000 0.000 6.777 
6.527 11585.944 0.000 0.000 0.000 6.788 
6.537 11642.994 0.000 0.000 0.000 6.798 
6.547 11490.445 0.000 0.000 0.000 6.808 
6.557 11510.076 0.000 0.000 0.000 6.819 
6.567 11543.979 0.000 0.000 0.000 6.829 
6.577 11460.427 0.000 0.000 0.000 6.840 
6.587 11514.314 0.000 0.000 0.000 6.850 
6.597 11418.061 0.000 0.000 0.000 6.860 
6.607 11488.036 0.000 0.000 0.000 6.871 
6.617 11539.152 0.000 0.000 0.000 6.881 
6.627 11599.760 0.000 0.000 0.000 6.892 
6.637 11475.880 0.000 0.000 0.000 6.902 
6.647 11589.141 0.000 0.000 0.000 6.913 
6.657 11457.010 0.000 0.000 0.000 6.923 
6.667 11522.017 0.000 0.000 0.000 6.933 
6.677 11580.219 0.000 0.000 0.000 6.944 
6.687 11519.389 0.000 0.000 0.000 6.954 
6.697 11472.755 0.000 0.000 0.000 6.965 
6.707 11482.507 0.000 0.000 0.000 6.975 
6.717 11555.251 0.000 0.000 0.000 6.985 
6.727 11341.330 0.000 0.000 0.000 6.996 
6.737 11465.909 0.000 0.000 0.000 7.006 
6.747 11478.459 0.000 0.000 0.000 7.017 
6.757 11526.549 0.000 0.000 0.000 7.027 
6.767 11445.140 0.000 0.000 0.000 7.037 
6.777 11472.049 0.000 0.000 0.000 7.048 
6.787 11437.216 0.000 0.000 0.000 7.058 
6.797 11419.805 0.000 0.000 0.000 7.069 
6.807 11449.619 0.000 0.000 0.000 7.079 
6.817 11474.347 0.000 0.000 0.000 7.089 
6.827 11429.947 0.000 0.000 0.000 7.100 
6.837 11520.479 0.000 0.000 0.000 7.110 
6.847 11550.165 0.000 0.000 0.000 7.121 
6.857 11427.534 0.000 0.000 0.000 7.131 
6.867 11474.557 0.000 0.000 0.000 7.142 
6.877 11456.386 0.000 0.000 0.000 7.152 
6.887 11502.117 0.000 0.000 0.000 7.162 
6.897 11384.926 0.000 0.000 0.000 7.173 
6.907 11494.963 0.000 0.000 0.000 7.183 
6.917 11498.935 0.000 0.000 0.000 7.194 
6.927 11409.405 0.000 0.000 0.000 7.204 
6.937 11507.258 0.000 0.000 0.000 7.214 
6.947 11501.320 0.000 0.000 0.000 7.225 
6.957 11409.711 0.000 0.000 0.000 7.235 
6.967 11463.523 0.000 0.000 0.000 7.246 
6.977 11358.894 0.000 0.000 0.000 7.256 
6.987 11450.488 0.000 0.000 0.000 7.266 
6.997 11432.039 0.000 0.000 0.000 7.277 
7.007 11468.715 0.000 0.000 0.000 7.287 
7.017 11454.787 0.000 0.000 0.000 7.298 
7.027 11356.468 0.000 0.000 0.000 7.308 
7.037 11386.590 0.000 0.000 0.000 7.319 
7.047 11483.072 0.000 0.000 0.000 7.329 
7.057 11457.857 0.000 0.000 0.000 7.339 
7.067 11523.128 0.000 0.000 0.000 7.350 
7.077 11497.123 0.000 0.000 0.000 7.360 
7.087 11419.370 0.000 0.000 0.000 7.371 
7.097 11560.879 0.000 0.000 0.000 7.381 
7.107 11454.214 0.000 0.000 0.000 7.391 
7.117 11446.523 0.000 0.000 0.000 7.402 
7.127 11482.048 0.000 0.000 0.000 7.412 
7.137 11388.748 0.000 0.000 0.000 7.423 
7.147 11371.515 0.000 0.000 0.000 7.433 
7.157 11421.258 0.000 0.000 0.000 7.443 
7.167 11402.641 0.000 0.000 0.000 7.454 
7.177 11452.963 0.000 0.000 0.000 7.464 
7.187 11448.135 0.000 0.000 0.000 7.475 
7.197 11437.887 0.000 0.000 0.000 7.485 
7.207 11530.695 0.000 0.000 0.000 7.495 
7.217 11460.974 0.000 0.000 0.000 7.506 
7.227 11473.458 0.000 0.000 0.000 7.516 
7.237 11332.340 0.000 0.000 0.000 7.527 
7.247 11402.702 0.000 0.000 0.000 7.537 
7.257 11414.624 0.000 0.000 0.000 7.548 
7.267 11475.378 0.000 0.000 0.000 7.558 
7.277 11494.481 0.000 0.000 0.000 7.568 
7.287 11472.741 0.000 0.000 0.000 7.579 
7.297 11425.989 0.000 0.000 0.000 7.589 
7.307 11356.976 0.000 0.000 0.000 7.600 
7.317 11353.686 0.000 0.000 0.000 7.610 
7.327 11448.115 0.000 0.000 0.000 7.620 
7.337 11346.559 0.000 0.000 0.000 7.631 
7.347 11411.295 0.000 0.000 0.000 7.641 
7.357 11415.991 0.000 0.000 0.000 7.652 
7.367 11318.781 0.000 0.000 0.000 7.662 
7.377 11313.205 0.000 0.000 0.000 7.672 
7.387 11367.442 0.000 0.000 0.000 7.683 
7.397 11530.479 0.000 0.000 0.000 7.693 
7.407 11402.453 0.000 0.000 0.000 7.704 
7.417 11404.476 0.000 0.000 0.000 7.714 
7.427 11476.808 0.000 0.000 0.000 7.725 
7.437 11416.080 0.000 0.000 0.000 7.735 
7.447 11342.717 0.000 0.000 0.000 7.745 
7.457 11504.942 0.000 0.000 0.000 7.756 
7.467 11335.613 0.000 0.000 0.000 7.766 
7.477 11334.810 0.000 0.000 0.000 7.777 
7.487 11378.202 0.000 0.000 0.000 7.787 
7.497 11398.259 0.000 0.000 0.000 7.797 
7.508 11410.785 0.000 0.000 0.000 7.808 
7.518 11284.188 0.000 0.000 0.000 7.818 
7.528 11377.572 0.000 0.000 0.000 7.829 
7.538 11375.376 0.000 0.000 0.000 7.839 
7.548 11338.776 0.000 0.000 0.000 7.849 
7.558 11388.974 0.000 0.000 0.000 7.860 
7.568 11451.245 0.000 0.000 0.000 7.870 
7.578 11342.507 0.000 0.000 0.000 7.881 
7.588 11317.731 0.000 0.000 0.000 7.891 
7.598 11266.577 0.000 0.000 0.000 7.902 
7.608 11316.336 0.000 0.000 0.000 7.912 
7.618 11340.262 0.000 0.000 0.000 7.922 
7.628 11301.710 0.000 0.000 0.000 7.933 
7.638 11319.393 0.000 0.000 0.000 7.943 
7.648 11341.204 0.000 0.000 0.000 7.954 
7.658 11318.503 0.000 0.000 0.000 7.964 
7.668 11333.076 0.000 0.000 0.000 7.974 
7.678 11357.455 0.000 0.000 0.000 7.985 
7.688 11317.164 0.000 0.000 0.000 7.995 
7.698 11310.391 0.000 0.000 0.000 8.006 
7.708 11251.750 0.000 0.000 0.000 8.016 
7.718 11241.741 0.000 0.000 0.000 8.026 
7.728 11268.723 0.000 0.000 0.000 8.037 
7.738 11295.127 0.000 0.000 0.000 8.047 
7.748 11372.851 0.000 0.000 0.000 8.058 
7.758 11385.061 0.000 0.000 0.000 8.068 
7.768 11276.708 0.000 0.000 0.000 8.078 
7.778 11256.238 0.000 0.000 0.000 8.089 
7.788 11315.691 0.000 0.000 0.000 8.099 
7.798 11268.200 0.000 0.000 0.000 8.110 
7.808 11307.797 0.000 0.000 0.000 8.120 
7.818 11312.099 0.000 0.000 0.000 8.131 
7.828 11319.907 0.000 0.000 0.000 8.141 
7.838 11335.591 0.000 0.000 0.000 8.151 
7.848 11367.047 0.000 0.000 0.000 8.162 
7.858 11357.617 0.000 0.000 0.000 8.172 
7.868 11328.566 0.000 0.000 0.000 8.183 
7.878 11313.988 0.000 0.000 0.000 8.193 
7.888 11320.171 0.000 0.000 0.000 8.203 
7.898 11324.503 0.000 0.000 0.000 8.214 
7.908 11301.973 0.000 0.000 0.000 8.224 
7.918 11245.258 0.000 0.000 0.000 8.235 
7.928 11220.747 0.000 0.000 0.000 8.245 
7.938 11251.346 0.000 0.000 0.000 8.255 
7.948 11296.922 0.000 0.000 0.000 8.266 
7.958 11322.656 0.000 0.000 0.000 8.276 
7.968 11308.567 0.000 0.000 0.000 8.287 
7.978 11236.117 0.000 0.000 0.000 8.297 
7.988 11356.098 0.000 0.000 0.000 8.308 
7.998 11307.285 0.000 0.000 0.000 8.318 
8.008 11232.389 0.000 0.000 0.000 8.328 
8.018 11276.508 0.000 0.000 0.000 8.339 
8.028 11214.996 0.000 0.000 0.000 8.349 
8.038 11323.696 0.000 0.000 0.000 8.360 
8.048 11217.990 0.000 0.000 0.000 8.370 
8.058 11261.237 0.000 0.000 0.000 8.380 
8.068 11239.231 0.000 0.000 0.000 8.391 
8.078 11236.200 0.000 0.000 0.000 8.401 
8.088 11288.591 0.000 0.000 0.000 8.412 
8.098 11180.275 0.000 0.000 0.000 8.422 
8.108 11273.276 0.000 0.000 0.000 8.432 
8.118 11087.261 0.000 0.000 0.000 8.443 
8.128 11217.017 0.000 0.000 0.000 8.453 
8.138 11254.973 0.000 0.000 0.000 8.464 
8.148 11266.829 0.000 0.000 0.000 8.474 
8.158 11227.950 0.000 0.000 0.000 8.484 
8.168 11331.754 0.000 0.000 0.000 8.495 
8.178 11213.989 0.000 0.000 0.000 8.505 
8.188 11256.661 0.000 0.000 0.000 8.516 
8.198 11271.293 0.000 0.000 0.000 8.526 
8.208 11230.371 0.000 0.000 0.000 8.537 
8.218 11133.273 0.000 0.000 0.000 8.547 
8.228 11200.180 0.000 0.000 0.000 8.557 
8.238 11288.741 0.000 0.000 0.000 8.568 
8.248 11193.779 0.000 0.000 0.000 8.578 
8.258 11204.351 0.000 0.000 0.000 8.589 
8.268 11274.009 0.000 0.000 0.000 8.599 
8.278 11131.885 0.000 0.000 0.000 8.609 
8.288 11172.438 0.000 0.000 0.000 8.620 
8.298 11190.061 0.000 0.000 0.000 8.630 
8.308 11178.867 0.000 0.000 0.000 8.641 
8.318 11160.614 0.000 0.000 0.000 8.651 
8.328 11144.919 0.000 0.000 0.000 8.661 
8.338 11242.324 0.000 0.000 0.000 8.672 
8.348 11127.481 0.000 0.000 0.000 8.682 
8.358 11221.179 0.000 0.000 0.000 8.693 
8.368 11188.266 0.000 0.000 0.000 8.703 
8.378 11180.740 0.000 0.000 0.000 8.714 
8.388 11192.640 0.000 0.000 0.000 8.724 
8.398 11204.348 0.000 0.000 0.000 8.734 
8.408 11260.183 0.000 0.000 0.000 8.745 
8.418 11201.240 0.000 0.000 0.000 8.755 
8.428 11163.881 0.000 0.000 0.000 8.766 
8.438 11076.719 0.000 0.000 0.000 8.776 
8.448 11067.965 0.000 0.000 0.000 8.786 
8.458 11192.004 0.000 0.000 0.000 8.797 
8.468 11095.603 0.000 0.000 0.000 8.807 
8.478 11231.310 0.000 0.000 0.000 8.818 
8.488 11219.219 0.000 0.000 0.000 8.828 
8.498 11107.317 0.000 0.000 0.000 8.838 
8.509 11046.426 0.000 0.000 0.000 8.849 
8.519 11089.464 0.000 0.000 0.000 8.859 
8.529 11342.882 0.000 0.000 0.000 8.870 
8.539 11130.247 0.000 0.000 0.000 8.880 
8.549 11158.135 0.000 0.000 0.000 8.890 
8.559 11081.467 0.000 0.000 0.000 8.901 
8.569 11053.518 0.000 0.000 0.000 8.911 
8.579 11101.037 0.000 0.000 0.000 8.922 
8.589 11088.806 0.000 0.000 0.000 8.932 
8.599 11187.829 0.000 0.000 0.000 8.943 
8.609 11120.676 0.000 0.000 0.000 8.953 
8.619 11181.202 0.000 0.000 0.000 8.963 
8.629 11075.811 0.000 0.000 0.000 8.974 
8.639 10893.823 0.000 0.000 0.000 8.984 
8.649 11063.256 0.000 0.000 0.000 8.995 
8.659 11118.275 0.000 0.000 0.000 9.005 
8.669 11094.974 0.000 0.000 0.000 9.015 
8.679 11096.086 0.000 0.000 0.000 9.026 
8.689 11076.033 0.000 0.000 0.000 9.036 
8.699 11136.330 0.000 0.000 0.000 9.047 
8.709 10973.647 0.000 0.000 0.000 9.057 
8.719 11042.773 0.000 0.000 0.000 9.067 
8.729 11050.330 0.000 0.000 0.000 9.078 
8.739 11061.451 0.000 0.000 0.000 9.088 
8.749 11027.800 0.000 0.000 0.000 9.099 
8.759 11117.598 0.000 0.000 0.000 9.109 
8.769 11049.211 0.000 0.000 0.000 9.120 
8.779 10977.115 0.000 0.000 0.000 9.130 
8.789 11046.946 0.000 0.000 0.000 9.140 
8.799 11096.587 0.000 0.000 0.000 9.151 
8.809 10976.759 0.000 0.000 0.000 9.161 
8.819 11087.406 0.000 0.000 0.000 9.172 
8.829 11079.349 0.000 0.000 0.000 9.182 
8.839 10992.229 0.000 0.000 0.000 9.192 
8.849 11155.615 0.000 0.000 0.000 9.203 
8.859 11002.104 0.000 0.000 0.000 9.213 
8.869 11103.575 0.000 0.000 0.000 9.224 
8.879 11072.724 0.000 0.000 0.000 9.234 
8.889 11106.707 0.000 0.000 0.000 9.244 
8.899 11091.048 0.000 0.000 0.000 9.255 
8.909 11056.436 0.000 0.000 0.000 9.265 
8.919 11085.552 0.000 0.000 0.000 9.276 
8.929 10894.071 0.000 0.000 0.000 9.286 
8.939 11043.847 0.000 0.000 0.000 9.296 
8.949 10904.301 0.000 0.000 0.000 9.307 
8.959 11010.342 0.000 0.000 0.000 9.317 
8.969 11058.076 0.000 0.000 0.000 9.328 
8.979 10970.395 0.000 0.000 0.000 9.338 
8.989 11107.750 0.000 0.000 0.000 9.349 
8.999 10944.081 0.000 0.000 0.000 9.359 
9.009 11000.773 0.000 0.000 0.000 9.369 
9.019 10987.216 0.000 0.000 0.000 9.380 
9.029 11019.538 0.000 0.000 0.000 9.390 
9.039 10979.178 0.000 0.000 0.000 9.401 
9.049 10931.142 0.000 0.000 0.000 9.411 
9.059 10957.856 0.000 0.000 0.000 9.421 
9.069 10878.004 0.000 0.000 0.000 9.432 
9.079 10946.116 0.000 0.000 0.000 9.442 
9.089 11028.152 0.000 0.000 0.000 9.453 
9.099 10970.447 0.000 0.000 0.000 9.463 
9.109 11024.198 0.000 0.000 0.000 9.473 
9.119 11026.162 0.000 0.000 0.000 9.484 
9.129 10910.463 0.000 0.000 0.000 9.494 
9.139 10899.045 0.000 0.000 0.000 9.505 
9.149 11020.737 0.000 0.000 0.000 9.515 
9.159 10976.585 0.000 0.000 0.000 9.526 
9.169 11042.930 0.000 0.000 0.000 9.536 
9.179 11044.013 0.000 0.000 0.000 9.546 
9.189 10924.928 0.000 0.000 0.000 9.557 
9.199 10882.789 0.000 0.000 0.000 9.567 
9.209 10995.229 0.000 0.000 0.000 9.578 
9.219 10956.325 0.000 0.000 0.000 9.588 
9.229 10992.127 0.000 0.000 0.000 9.598 
9.239 10944.211 0.000 0.000 0.000 9.609 
9.249 10869.556 0.000 0.000 0.000 9.619 
9.259 10841.630 0.000 0.000 0.000 9.630 
9.269 10840.312 0.000 0.000 0.000 9.640 
9.279 10953.234 0.000 0.000 0.000 9.650 
9.289 10837.014 0.000 0.000 0.000 9.661 
9.299 10956.694 0.000 0.000 0.000 9.671 
9.309 10770.968 0.000 0.000 0.000 9.682 
9.319 10908.665 0.000 0.000 0.000 9.692 
9.329 10860.763 0.000 0.000 0.000 9.703 
9.339 10914.981 0.000 0.000 0.000 9.713 
9.349 10971.041 0.000 0.000 0.000 9.723 
9.359 11010.336 0.000 0.000 0.000 9.734 
9.369 10907.064 0.000 0.000 0.000 9.744 
9.379 10695.913 0.000 0.000 0.000 9.755 
9.389 10937.925 0.000 0.000 0.000 9.765 
9.399 10881.848 0.000 0.000 0.000 9.775 
9.409 10885.721 0.000 0.000 0.000 9.786 
9.419 10957.539 0.000 0.000 0.000 9.796 
9.429 10916.040 0.000 0.000 0.000 9.807 
9.439 10868.164 0.000 0.000 0.000 9.817 
9.449 10854.783 0.000 0.000 0.000 9.827 
9.459 10866.693 0.000 0.000 0.000 9.838 
9.469 10754.181 0.000 0.000 0.000 9.848 
9.479 10780.514 0.000 0.000 0.000 9.859 
9.489 10814.754 0.000 0.000 0.000 9.869 
9.499 10869.423 0.000 0.000 0.000 9.879 
9.510 10898.050 0.000 0.000 0.000 9.890 
9.520 10813.447 0.000 0.000 0.000 9.900 
9.530 10792.604 0.000 0.000 0.000 9.911 
9.540 10974.823 0.000 0.000 0.000 9.921 
9.550 10874.413 0.000 0.000 0.000 9.932 
9.560 10799.293 0.000 0.000 0.000 9.942 
9.570 10921.788 0.000 0.000 0.000 9.952 
9.580 10748.168 0.000 0.000 0.000 9.963 
9.590 10690.280 0.000 0.000 0.000 9.973 
9.600 10804.199 0.000 0.000 0.000 9.984 
9.610 10796.483 0.000 0.000 0.000 9.994 
9.620 10866.932 0.000 0.000 0.000 10.004 
9.630 10739.054 0.000 0.000 0.000 10.015 
9.640 10782.289 0.000 0.000 0.000 10.025 
9.650 10809.664 0.000 0.000 0.000 10.036 
9.660 10735.556 0.000 0.000 0.000 10.046 
9.670 10704.155 0.000 0.000 0.000 10.056 
9.680 10811.469 0.000 0.000 0.000 10.067 
9.690 10699.037 0.000 0.000 0.000 10.077 
9.700 10800.636 0.000 0.000 0.000 10.088 
9.710 10791.583 0.000 0.000 0.000 10.098 
9.720 10724.660 0.000 0.000 0.000 10.109 
9.730 10742.402 0.000 0.000 0.000 10.119 
9.740 10708.149 0.000 0.000 0.000 10.129 
9.750 10766.847 0.000 0.000 0.000 10.140 
9.760 10743.570 0.000 0.000 0.000 10.150 
9.770 10758.304 0.000 0.000 0.000 10.161 
9.780 10676.159 0.000 0.000 0.000 10.171 
9.790 10763.104 0.000 0.000 0.000 10.181 
9.800 10832.986 0.000 0.000 0.000 10.192 
9.810 10789.801 0.000 0.000 0.000 10.202 
9.820 10714.416 0.000 0.000 0.000 10.213 
9.830 10596.166 0.000 0.000 0.000 10.223 
9.840 10803.494 0.000 0.000 0.000 10.233 
9.850 10769.512 0.000 0.000 0.000 10.244 
9.860 10619.332 0.000 0.000 0.000 10.254 
9.870 10788.099 0.000 0.000 0.000 10.265 
9.880 10720.582 0.000 0.000 0.000 10.275 
9.890 10698.975 0.000 0.000 0.000 10.285 
9.900 10820.896 0.000 0.000 0.000 10.296 
9.910 10582.758 0.000 0.000 0.000 10.306 
9.920 10643.264 0.000 0.000 0.000 10.317 
9.930 10587.351 0.000 0.000 0.000 10.327 
9.940 10656.395 0.000 0.000 0.000 10.338 
9.950 10600.372 0.000 0.000 0.000 10.348 
9.960 10652.445 0.000 0.000 0.000 10.358 
9.970 10575.799 0.000 0.000 0.000 10.369 
9.980 10662.560 0.000 0.000 0.000 10.379 
9.990 10635.890 0.000 0.000 0.000 10.390 
10.000 10631.087 0.000 0.000 0.000 10.400 
"Specimen",2
"Specimen name:",""
"Width:",6.350000,"mm"
"Thickness:",1.524000,"mm"
"Length:",12.000000,"mm"
"Diameter:",5.000000,"um"
"Inner diameter:",0.500000,"mm"
"Outer diameter:",1.000000,"mm"
"Wall thickness:",0.500000,"mm"
"Area:",19.634954,"um*um"
"Linear density:",1.000000,"den"
"Sled weight:",9.806650,"N"
"Loading span:",0.000000,"mm"
"Support span:",1.000000,"mm"
"Span ratio:","2"
"Fixture type:","3-point"
"Comment:",""
"Included"
"Time sec","Stress Pa","Cycle Count","Total Cycle Count","Repetitions Count","Strain [Exten.] %"
0.000 -115.099 0.000 0.000 0.000 0.000 
0.010 -77.835 0.000 0.000 0.000 0.010 
0.020 45.091 0.000 0.000 0.000 0.021 
0.030 35.752 0.000 0.000 0.000 0.031 
0.040 116.913 0.000 0.000 0.000 0.042 
0.050 184.921 0.000 0.000 0.000 0.052 
0.060 151.146 0.000 0.000 0.000 0.062 
0.070 280.028 0.000 0.000 0.000 0.073 
0.080 299.485 0.000 0.000 0.000 0.083 
0.090 370.542 0.000 0.000 0.000 0.094 
0.100 274.166 0.000 0.000 0.000 0.104 
0.110 337.298 0.000 0.000 0.000 0.115 
0.120 330.353 0.000 0.000 0.000 0.125 
0.130 481.392 0.000 0.000 0.000 0.135 
0.140 501.781 0.000 0.000 0.000 0.146 
0.150 627.942 0.000 0.000 0.000 0.156 
0.160 574.605 0.000 0.000 0.000 0.167 
0.170 665.801 0.000 0.000 0.000 0.177 
0.180 703.472 0.000 0.000 0.000 0.187 
0.190 791.389 0.000 0.000 0.000 0.198 
0.200 780.721 0.000 0.000 0.000 0.208 
0.210 771.623 0.000 0.000 0.000 0.219 
0.220 764.264 0.000 0.000 0.000 0.229 
0.230 824.758 0.000 0.000 0.000 0.239 
0.240 881.794 0.000 0.000 0.000 0.250 
0.250 1035.562 0.000 0.000 0.000 0.260 
0.260 960.634 0.000 0.000 0.000 0.271 
0.270 963.356 0.000 0.000 0.000 0.281 
0.280 1066.285 0.000 0.000 0.000 0.291 
0.290 1076.145 0.000 0.000 0.000 0.302 
0.300 1274.024 0.000 0.000 0.000 0.312 
0.310 1208.163 0.000 0.000 0.000 0.323 
0.320 1271.154 0.000 0.000 0.000 0.333 
0.330 1335.944 0.000 0.000 0.000 0.344 
0.340 1225.480 0.000 0.000 0.000 0.354 
0.350 1319.770 0.000 0.000 0.000 0.364 
0.360 1443.995 0.000 0.000 0.000 0.375 
0.370 1492.966 0.000 0.000 0.000 0.385 
0.380 1426.182 0.000 0.000 0.000 0.396 
0.390 1415.500 0.000 0.000 0.000 0.406 
0.400 1528.403 0.000 0.000 0.000 0.416 
0.410 1599.483 0.000 0.000 0.000 0.427 
0.420 1539.641 0.000 0.000 0.000 0.437 
0.430 1728.675 0.000 0.000 0.000 0.448 
0.440 1693.839 0.000 0.000 0.000 0.458 
0.450 1697.699 0.000 0.000 0.000 0.468 
0.460 1712.744 0.000 0.000 0.000 0.479 
0.470 1758.855 0.000 0.000 0.000 0.489 
0.480 1987.390 0.000 0.000 0.000 0.500 
0.490 1880.320 0.000 0.000 0.000 0.510 
0.501 2037.514 0.000 0.000 0.000 0.521 
0.511 1979.990 0.000 0.000 0.000 0.531 
0.521 2071.959 0.000 0.000 0.000 0.541 
0.531 2039.704 0.000 0.000 0.000 0.552 
0.541 2065.745 0.000 0.000 0.000 0.562 
0.551 2129.121 0.000 0.000 0.000 0.573 
0.561 2104.920 0.000 0.000 0.000 0.583 
0.571 2149.580 0.000 0.000 0.000 0.593 
0.581 2211.740 0.000 0.000 0.000 0.604 
0.591 2219.578 0.000 0.000 0.000 0.614 
0.601 2267.191 0.000 0.000 0.000 0.625 
0.611 2303.839 0.000 0.000 0.000 0.635 
0.621 2504.061 0.000 0.000 0.000 0.645 
0.631 2422.225 0.000 0.000 0.000 0.656 
0.641 2527.591 0.000 0.000 0.000 0.666 
0.651 2623.208 0.000 0.000 0.000 0.677 
0.661 2660.574 0.000 0.000 0.000 0.687 
0.671 2627.336 0.000 0.000 0.000 0.697 
0.681 2611.121 0.000 0.000 0.000 0.708 
0.691 2657.908 0.000 0.000 0.000 0.718 
0.701 2792.035 0.000 0.000 0.000 0.729 
0.711 2865.136 0.000 0.000 0.000 0.739 
0.721 2890.616 0.000 0.000 0.000 0.750 
0.731 2767.890 0.000 0.000 0.000 0.760 
0.741 2904.719 0.000 0.000 0.000 0.770 
0.751 2939.973 0.000 0.000 0.000 0.781 
0.761 2988.732 0.000 0.000 0.000 0.791 
0.771 2910.218 0.000 0.000 0.000 0.802 
0.781 2988.920 0.000 0.000 0.000 0.812 
0.791 3123.279 0.000 0.000 0.000 0.822 
0.801 3199.765 0.000 0.000 0.000 0.833 
0.811 3175.600 0.000 0.000 0.000 0.843 
0.821 3130.200 0.000 0.000 0.000 0.854 
0.831 3336.639 0.000 0.000 0.000 0.864 
0.841 3204.144 0.000 0.000 0.000 0.874 
0.851 3312.540 0.000 0.000 0.000 0.885 
0.861 3411.004 0.000 0.000 0.000 0.895 
0.871 3360.164 0.000 0.000 0.000 0.906 
0.881 3437.956 0.000 0.000 0.000 0.916 
0.891 3402.621 0.000 0.000 0.000 0.927 
0.901 3528.242 0.000 0.000 0.000 0.937 
0.911 3658.254 0.000 0.000 0.000 0.947 
0.921 3645.104 0.000 0.000 0.000 0.958 
0.931 3616.154 0.000 0.000 0.000 0.968 
0.941 3692.998 0.000 0.000 0.000 0.979 
0.951 3764.653 0.000 0.000 0.000 0.989 
0.961 3841.065 0.000 0.000 0.000 0.999 
0.971 3840.957 0.000 0.000 0.000 1.010 
0.981 3892.629 0.000 0.000 0.000 1.020 
0.991 3906.049 0.000 0.000 0.000 1.031 
1.001 3904.681 0.000 0.000 0.000 1.041 
1.011 3934.511 0.000 0.000 0.000 1.051 
1.021 4091.971 0.000 0.000 0.000 1.062 
1.031 4054.098 0.000 0.000 0.000 1.072 
1.041 4075.543 0.000 0.000 0.000 1.083 
1.051 4174.311 0.000 0.000 0.000 1.093 
1.061 4161.801 0.000 0.000 0.000 1.104 
1.071 4250.451 0.000 0.000 0.000 1.114 
1.081 4228.482 0.000 0.000 0.000 1.124 
1.091 4259.165 0.000 0.000 0.000 1.135 
1.101 4326.118 0.000 0.000 0.000 1.145 
1.111 4400.291 0.000 0.000 0.000 1.156 
1.121 4421.467 0.000 0.000 0.000 1.166 
1.131 4507.595 0.000 0.000 0.000 1.176 
1.141 4523.873 0.000 0.000 0.000 1.187 
1.151 4587.659 0.000 0.000 0.000 1.197 
1.161 4502.917 0.000 0.000 0.000 1.208 
1.171 4555.569 0.000 0.000 0.000 1.218 
1.181 4621.386 0.000 0.000 0.000 1.228 
1.191 4665.230 0.000 0.000 0.000 1.239 
1.201 4759.984 0.000 0.000 0.000 1.249 
1.211 4732.927 0.000 0.000 0.000 1.260 
1.221 4775.544 0.000 0.000 0.000 1.270 
1.231 4799.403 0.000 0.000 0.000 1.280 
1.241 4856.766 0.000 0.000 0.000 1.291 
1.251 4866.307 0.000 0.000 0.000 1.301 
1.261 4945.250 0.000 0.000 0.000 1.312 
1.271 4980.517 0.000 0.000 0.000 1.322 
1.281 5066.877 0.000 0.000 0.000 1.333 
1.291 5082.312 0.000 0.000 0.000 1.343 
1.301 5064.930 0.000 0.000 0.000 1.353 
1.311 5130.054 0.000 0.000 0.000 1.364 
1.321 5141.145 0.000 0.000 0.000 1.374 
1.331 5174.899 0.000 0.000 0.000 1.385 
1.341 5254.806 0.000 0.000 0.000 1.395 
1.351 5379.653 0.000 0.000 0.000 1.405 
1.361 5234.096 0.000 0.000 0.000 1.416 
1.371 5350.891 0.000 0.000 0.000 1.426 
1.381 5422.441 0.000 0.000 0.000 1.437 
1.391 5402.634 0.000 0.000 0.000 1.447 
1.401 5583.694 0.000 0.000 0.000 1.457 
1.411 5575.769 0.000 0.000 0.000 1.468 
1.421 5551.357 0.000 0.000 0.000 1.478 
1.431 5669.756 0.000 0.000 0.000 1.489 
1.441 5675.254 0.000 0.000 0.000 1.499 
1.451 5714.031 0.000 0.000 0.000 1.510 
1.461 5772.250 0.000 0.000 0.000 1.520 
1.471 5731.118 0.000 0.000 0.000 1.530 
1.481 5860.143 0.000 0.000 0.000 1.541 
1.491 5805.662 0.000 0.000 0.000 1.551 
1.502 5877.995 0.000 0.000 0.000 1.562 
1.512 5926.985 0.000 0.000 0.000 1.572 
1.522 6033.474 0.000 0.000 0.000 1.582 
1.532 5988.056 0.000 0.000 0.000 1.593 
1.542 6003.643 0.000 0.000 0.000 1.603 
1.552 6018.196 0.000 0.000 0.000 1.614 
1.562 6186.143 0.000 0.000 0.000 1.624 
1.572 6155.889 0.000 0.000 0.000 1.634 
1.582 6217.378 0.000 0.000 0.000 1.645 
1.592 6346.535 0.000 0.000 0.000 1.655 
1.602 6225.464 0.000 0.000 0.000 1.666 
1.612 6410.344 0.000 0.000 0.000 1.676 
1.622 6350.563 0.000 0.000 0.000 1.686 
1.632 6405.056 0.000 0.000 0.000 1.697 
1.642 6423.663 0.000 0.000 0.000 1.707 
1.652 6474.539 0.000 0.000 0.000 1.718 
1.662 6527.920 0.000 0.000 0.000 1.728 
1.672 6491.156 0.000 0.000 0.000 1.739 
1.682 6647.550 0.000 0.000 0.000 1.749 
1.692 6596.588 0.000 0.000 0.000 1.759 
1.702 6631.895 0.000 0.000 0.000 1.770 
1.712 6627.324 0.000 0.000 0.000 1.780 
1.722 6795.831 0.000 0.000 0.000 1.791 
1.732 6788.876 0.000 0.000 0.000 1.801 
1.742 6795.354 0.000 0.000 0.000 1.811 
1.752 6892.385 0.000 0.000 0.000 1.822 
1.762 6997.882 0.000 0.000 0.000 1.832 
1.772 7029.825 0.000 0.000 0.000 1.843 
1.782 7020.683 0.000 0.000 0.000 1.853 
1.792 7058.167 0.000 0.000 0.000 1.863 
1.802 6996.823 0.000 0.000 0.000 1.874 
1.812 7070.025 0.000 0.000 0.000 1.884 
1.822 7070.102 0.000 0.000 0.000 1.895 
1.832 7276.048 0.000 0.000 0.000 1.905 
1.842 7216.170 0.000 0.000 0.000 1.916 
1.852 7140.951 0.000 0.000 0.000 1.926 
1.862 7334.962 0.000 0.000 0.000 1.936 
1.872 7435.260 0.000 0.000 0.000 1.947 
1.882 7364.658 0.000 0.000 0.000 1.957 
1.892 7386.469 0.000 0.000 0.000 1.968 
1.902 7454.474 0.000 0.000 0.000 1.978 
1.912 7505.986 0.000 0.000 0.000 1.988 
1.922 7536.407 0.000 0.000 0.000 1.999 
1.932 7663.505 0.000 0.000 0.000 2.009 
1.942 7651.247 0.000 0.000 0.000 2.020 
1.952 7655.516 0.000 0.000 0.000 2.030 
1.962 7774.129 0.000 0.000 0.000 2.040 
1.972 7664.998 0.000 0.000 0.000 2.051 
1.982 7866.644 0.000 0.000 0.000 2.061 
1.992 7680.643 0.000 0.000 0.000 2.072 
2.002 7877.974 0.000 0.000 0.000 2.082 
2.012 7944.980 0.000 0.000 0.000 2.092 
2.022 7880.614 0.000 0.000 0.000 2.103 
2.032 8033.802 0.000 0.000 0.000 2.113 
2.042 8007.297 0.000 0.000 0.000 2.124 
2.052 8150.918 0.000 0.000 0.000 2.134 
2.062 8172.024 0.000 0.000 0.000 2.145 
2.072 8121.762 0.000 0.000 0.000 2.155 
2.082 8194.463 0.000 0.000 0.000 2.165 
2.092 8175.740 0.000 0.000 0.000 2.176 
2.102 8257.139 0.000 0.000 0.000 2.186 
2.112 8341.324 0.000 0.000 0.000 2.197 
2.122 8294.814 0.000 0.000 0.000 2.207 
2.132 8368.032 0.000 0.000 0.000 2.217 
2.142 8489.043 0.000 0.000 0.000 2.228 
2.152 8479.707 0.000 0.000 0.000 2.238 
2.162 8434.449 0.000 0.000 0.000 2.249 
2.172 8477.645 0.000 0.000 0.000 2.259 
2.182 8527.669 0.000 0.000 0.000 2.269 
2.192 8810.122 0.000 0.000 0.000 2.280 
2.202 8724.198 0.000 0.000 0.000 2.290 
2.212 8710.231 0.000 0.000 0.000 2.301 
2.222 8865.576 0.000 0.000 0.000 2.311 
2.232 8824.545 0.000 0.000 0.000 2.322 
2.242 8817.720 0.000 0.000 0.000 2.332 
2.252 8852.094 0.000 0.000 0.000 2.342 
2.262 8939.376 0.000 0.000 0.000 2.353 
2.272 8879.044 0.000 0.000 0.000 2.363 
2.282 8961.040 0.000 0.000 0.000 2.374 
2.292 9036.481 0.000 0.000 0.000 2.384 
2.302 9082.734 0.000 0.000 0.000 2.394 
2.312 9156.873 0.000 0.000 0.000 2.405 
2.322 9093.615 0.000 0.000 0.000 2.415 
2.332 9249.870 0.000 0.000 0.000 2.426 
2.342 9135.401 0.000 0.000 0.000 2.436 
2.352 9234.770 0.000 0.000 0.000 2.446 
2.362 9256.608 0.000 0.000 0.000 2.457 
2.372 9239.379 0.000 0.000 0.000 2.467 
2.382 9555.352 0.000 0.000 0.000 2.478 
2.392 9454.153 0.000 0.000 0.000 2.488 
2.402 9465.955 0.000 0.000 0.000 2.498 
2.412 9507.639 0.000 0.000 0.000 2.509 
2.422 9525.876 0.000 0.000 0.000 2.519 
2.432 9568.929 0.000 0.000 0.000 2.530 
2.442 9666.191 0.000 0.000 0.000 2.540 
2.452 9684.302 0.000 0.000 0.000 2.551 
2.462 9666.385 0.000 0.000 0.000 2.561 
2.472 9822.566 0.000 0.000 0.000 2.571 
2.482 9850.128 0.000 0.000 0.000 2.582 
2.492 9773.115 0.000 0.000 0.000 2.592 
2.503 9845.190 0.000 0.000 0.000 2.603 
2.513 9883.559 0.000 0.000 0.000 2.613 
2.523 9984.364 0.000 0.000 0.000 2.623 
2.533 9975.953 0.000 0.000 0.000 2.634 
2.543 10079.084 0.000 0.000 0.000 2.644 
2.553 10003.580 0.000 0.000 0.000 2.655 
2.563 10092.051 0.000 0.000 0.000 2.665 
2.573 10094.234 0.000 0.000 0.000 2.675 
2.583 10160.839 0.000 0.000 0.000 2.686 
2.593 10219.383 0.000 0.000 0.000 2.696 
2.603 10237.126 0.000 0.000 0.000 2.707 
2.613 10299.433 0.000 0.000 0.000 2.717 
2.623 10263.922 0.000 0.000 0.000 2.728 
2.633 10358.357 0.000 0.000 0.000 2.738 
2.643 10460.111 0.000 0.000 0.000 2.748 
2.653 10456.750 0.000 0.000 0.000 2.759 
2.663 10460.080 0.000 0.000 0.000 2.769 
2.673 10604.022 0.000 0.000 0.000 2.780 
2.683 10463.168 0.000 0.000 0.000 2.790 
2.693 10678.176 0.000 0.000 0.000 2.800 
2.703 10600.754 0.000 0.000 0.000 2.811 
2.713 10604.044 0.000 0.000 0.000 2.821 
2.723 10725.306 0.000 0.000 0.000 2.832 
2.733 10793.247 0.000 0.000 0.000 2.842 
2.743 10841.724 0.000 0.000 0.000 2.852 
2.753 10932.542 0.000 0.000 0.000 2.863 
2.763 10845.089 0.000 0.000 0.000 2.873 
2.773 11037.444 0.000 0.000 0.000 2.884 
2.783 10933.375 0.000 0.000 0.000 2.894 
2.793 10990.815 0.000 0.000 0.000 2.905 
2.803 11021.132 0.000 0.000 0.000 2.915 
2.813 11097.784 0.000 0.000 0.000 2.925 
2.823 11120.813 0.000 0.000 0.000 2.936 
2.833 11185.493 0.000 0.000 0.000 2.946 
2.843 11091.681 0.000 0.000 0.000 2.957 
2.853 11186.895 0.000 0.000 0.000 2.967 
2.863 11380.709 0.000 0.000 0.000 2.977 
2.873 11349.003 0.000 0.000 0.000 2.988 
2.883 11267.050 0.000 0.000 0.000 2.998 
2.893 11374.861 0.000 0.000 0.000 3.009 
2.903 11391.285 0.000 0.000 0.000 3.019 
2.913 11547.298 0.000 0.000 0.000 3.029 
2.923 11497.150 0.000 0.000 0.000 3.040 
2.933 11570.684 0.000 0.000 0.000 3.050 
2.943 11596.460 0.000 0.000 0.000 3.061 
2.953 11609.728 0.000 0.000 0.000 3.071 
2.963 11638.957 0.000 0.000 0.000 3.081 
2.973 11726.206 0.000 0.000 0.000 3.092 
2.983 11725.930 0.000 0.000 0.000 3.102 
2.993 11796.495 0.000 0.000 0.000 3.113 
3.003 11721.040 0.000 0.000 0.000 3.123 
3.013 11722.758 0.000 0.000 0.000 3.134 
3.023 11841.161 0.000 0.000 0.000 3.144 
3.033 11771.280 0.000 0.000 0.000 3.154 
3.043 11668.220 0.000 0.000 0.000 3.165 
3.053 11834.347 0.000 0.000 0.000 3.175 
3.063 11728.731 0.000 0.000 0.000 3.186 
3.073 11667.208 0.000 0.000 0.000 3.196 
3.083 11786.548 0.000 0.000 0.000 3.206 
3.093 11558.919 0.000 0.000 0.000 3.217 
3.103 11766.489 0.000 0.000 0.000 3.227 
3.113 11715.744 0.000 0.000 0.000 3.238 
3.123 11620.137 0.000 0.000 0.000 3.248 
3.133 11588.810 0.000 0.000 0.000 3.258 
3.143 11603.762 0.000 0.000 0.000 3.269 
3.153 11701.433 0.000 0.000 0.000 3.279 
3.163 11659.517 0.000 0.000 0.000 3.290 
3.173 11531.358 0.000 0.000 0.000 3.300 
3.183 11632.937 0.000 0.000 0.000 3.311 
3.193 11561.627 0.000 0.000 0.000 3.321 
3.203 11645.591 0.000 0.000 0.000 3.331 
3.213 11514.376 0.000 0.000 0.000 3.342 
3.223 11619.438 0.000 0.000 0.000 3.352 
3.233 11516.367 0.000 0.000 0.000 3.363 
3.243 11511.197 0.000 0.000 0.000 3.373 
3.253 11502.101 0.000 0.000 0.000 3.383 
3.263 11525.563 0.000 0.000 0.000 3.394 
3.273 11469.269 0.000 0.000 0.000 3.404 
3.283 11460.537 0.000 0.000 0.000 3.415 
3.293 11614.042 0.000 0.000 0.000 3.425 
3.303 11525.447 0.000 0.000 0.000 3.435 
3.313 11559.457 0.000 0.000 0.000 3.446 
3.323 11550.680 0.000 0.000 0.000 3.456 
3.333 11503.608 0.000 0.000 0.000 3.467 
3.343 11560.812 0.000 0.000 0.000 3.477 
3.353 11534.021 0.000 0.000 0.000 3.487 
3.363 11573.577 0.000 0.000 0.000 3.498 
3.373 11604.461 0.000 0.000 0.000 3.508 
3.383 11505.645 0.000 0.000 0.000 3.519 
3.393 11524.727 0.000 0.000 0.000 3.529 
3.403 11562.701 0.000 0.000 0.000 3.540 
3.413 11432.460 0.000 0.000 0.000 3.550 
3.423 11600.371 0.000 0.000 0.000 3.560 
3.433 11468.819 0.000 0.000 0.000 3.571 
3.443 11515.146 0.000 0.000 0.000 3.581 
3.453 11511.162 0.000 0.000 0.000 3.592 
3.463 11536.044 0.000 0.000 0.000 3.602 
3.473 11515.773 0.000 0.000 0.000 3.612 
3.483 11495.967 0.000 0.000 0.000 3.623 
3.493 11598.037 0.000 0.000 0.000 3.633 
3.504 11524.115 0.000 0.000 0.000 3.644 
3.514 11570.446 0.000 0.000 0.000 3.654 
3.524 11421.489 0.000 0.000 0.000 3.664 
3.534 11505.699 0.000 0.000 0.000 3.675 
3.544 11564.293 0.000 0.000 0.000 3.685 
3.554 11584.563 0.000 0.000 0.000 3.696 
3.564 11538.172 0.000 0.000 0.000 3.706 
3.574 11510.493 0.000 0.000 0.000 3.717 
3.584 11569.762 0.000 0.000 0.000 3.727 
3.594 11577.379 0.000 0.000 0.000 3.737 
3.604 11559.821 0.000 0.000 0.000 3.748 
3.614 11607.503 0.000 0.000 0.000 3.758 
3.624 11366.869 0.000 0.000 0.000 3.769 
3.634 11542.925 0.000 0.000 0.000 3.779 
3.644 11574.182 0.000 0.000 0.000 3.789 
3.654 11511.176 0.000 0.000 0.000 3.800 
3.664 11474.003 0.000 0.000 0.000 3.810 
3.674 11551.659 0.000 0.000 0.000 3.821 
3.684 11474.769 0.000 0.000 0.000 3.831 
3.694 11456.298 0.000 0.000 0.000 3.841 
3.704 11617.392 0.000 0.000 0.000 3.852 
3.714 11617.228 0.000 0.000 0.000 3.862 
3.724 11562.065 0.000 0.000 0.000 3.873 
3.734 11541.914 0.000 0.000 0.000 3.883 
3.744 11534.924 0.000 0.000 0.000 3.893 
3.754 11513.712 0.000 0.000 0.000 3.904 
3.764 11575.351 0.000 0.000 0.000 3.914 
3.774 11503.356 0.000 0.000 0.000 3.925 
3.784 11518.090 0.000 0.000 0.000 3.935 
3.794 11513.617 0.000 0.000 0.000 3.946 
3.804 11573.198 0.000 0.000 0.000 3.956 
3.814 11633.134 0.000 0.000 0.000 3.966 
3.824 11571.812 0.000 0.000 0.000 3.977 
3.834 11597.014 0.000 0.000 0.000 3.987 
3.844 11570.214 0.000 0.000 0.000 3.998 
3.854 11617.045 0.000 0.000 0.000 4.008 
3.864 11625.158 0.000 0.000 0.000 4.018 
3.874 11595.466 0.000 0.000 0.000 4.029 
3.884 11605.212 0.000 0.000 0.000 4.039 
3.894 11558.940 0.000 0.000 0.000 4.050 
3.904 11562.561 0.000 0.000 0.000 4.060 
3.914 11475.542 0.000 0.000 0.000 4.070 
3.924 11545.451 0.000 0.000 0.000 4.081 
3.934 11621.092 0.000 0.000 0.000 4.091 
3.944 11526.509 0.000 0.000 0.000 4.102 
3.954 11517.044 0.000 0.000 0.000 4.112 
3.964 11638.618 0.000 0.000 0.000 4.123 
3.974 11366.346 0.000 0.000 0.000 4.133 
3.984 11593.806 0.000 0.000 0.000 4.143 
3.994 11538.927 0.000 0.000 0.000 4.154 
4.004 11749.332 0.000 0.000 0.000 4.164 
4.014 11723.587 0.000 0.000 0.000 4.175 
4.024 11598.572 0.000 0.000 0.000 4.185 
4.034 11527.452 0.000 0.000 0.000 4.195 
4.044 11465.601 0.000 0.000 0.000 4.206 
4.054 11409.291 0.000 0.000 0.000 4.216 
4.064 11510.237 0.000 0.000 0.000 4.227 
4.074 11601.817 0.000 0.000 0.000 4.237 
4.084 11651.738 0.000 0.000 0.000 4.247 
4.094 11468.730 0.000 0.000 0.000 4.258 
4.104 11523.819 0.000 0.000 0.000 4.268 
4.114 11501.494 0.000 0.000 0.000 4.279 
4.124 11713.437 0.000 0.000 0.000 4.289 
4.134 11634.151 0.000 0.000 0.000 4.299 
4.144 11545.719 0.000 0.000 0.000 4.310 
4.154 11621.819 0.000 0.000 0.000 4.320 
4.164 11465.917 0.000 0.000 0.000 4.331 
4.174 11668.432 0.000 0.000 0.000 4.341 
4.184 11631.070 0.000 0.000 0.000 4.352 
4.194 11619.859 0.000 0.000 0.000 4.362 
4.204 11705.446 0.000 0.000 0.000 4.372 
4.214 11628.374 0.000 0.000 0.000 4.383 
4.224 11609.997 0.000 0.000 0.000 4.393 
4.234 11547.056 0.000 0.000 0.000 4.404 
4.244 11648.121 0.000 0.000 0.000 4.414 
4.254 11680.967 0.000 0.000 0.000 4.424 
4.264 11642.898 0.000 0.000 0.000 4.435 
4.274 11618.907 0.000 0.000 0.000 4.445 
4.284 11586.136 0.000 0.000 0.000 4.456 
4.294 11580.875 0.000 0.000 0.000 4.466 
4.304 11562.086 0.000 0.000 0.000 4.476 
4.314 11533.993 0.000 0.000 0.000 4.487 
4.324 11624.217 0.000 0.000 0.000 4.497 
4.334 11594.580 0.000 0.000 0.000 4.508 
4.344 11590.161 0.000 0.000 0.000 4.518 
4.354 11573.555 0.000 0.000 0.000 4.529 
4.364 11482.012 0.000 0.000 0.000 4.539 
4.374 11614.026 0.000 0.000 0.000 4.549 
4.384 11622.111 0.000 0.000 0.000 4.560 
4.394 11524.608 0.000 0.000 0.000 4.570 
4.404 11682.271 0.000 0.000 0.000 4.581 
4.414 11561.791 0.000 0.000 0.000 4.591 
4.424 11601.285 0.000 0.000 0.000 4.601 
4.434 11708.058 0.000 0.000 0.000 4.612 
4.444 11657.484 0.000 0.000 0.000 4.622 
4.454 11519.530 0.000 0.000 0.000 4.633 
4.464 11545.320 0.000 0.000 0.000 4.643 
4.474 11601.525 0.000 0.000 0.000 4.653 
4.484 11489.492 0.000 0.000 0.000 4.664 
4.494 11594.753 0.000 0.000 0.000 4.674 
4.505 11610.158 0.000 0.000 0.000 4.685 
4.515 11723.035 0.000 0.000 0.000 4.695 
4.525 11614.257 0.000 0.000 0.000 4.706 
4.535 11656.556 0.000 0.000 0.000 4.716 
4.545 11604.593 0.000 0.000 0.000 4.726 
4.555 11622.878 0.000 0.000 0.000 4.737 
4.565 11680.566 0.000 0.000 0.000 4.747 
4.575 11549.781 0.000 0.000 0.000 4.758 
4.585 11717.317 0.000 0.000 0.000 4.768 
4.595 11674.246 0.000 0.000 0.000 4.778 
4.605 11530.336 0.000 0.000 0.000 4.789 
4.615 11559.033 0.000 0.000 0.000 4.799 
4.625 11666.015 0.000 0.000 0.000 4.810 
4.635 11569.049 0.000 0.000 0.000 4.820 
4.645 11556.464 0.000 0.000 0.000 4.830 
4.655 11684.784 0.000 0.000 0.000 4.841 
4.665 11632.059 0.000 0.000 0.000 4.851 
4.675 11622.064 0.000 0.000 0.000 4.862 
4.685 11615.826 0.000 0.000 0.000 4.872 
4.695 11576.847 0.000 0.000 0.000 4.882 
4.705 11710.792 0.000 0.000 0.000 4.893 
4.715 11590.074 0.000 0.000 0.000 4.903 
4.725 11669.767 0.000 0.000 0.000 4.914 
4.735 11590.753 0.000 0.000 0.000 4.924 
4.745 11589.520 0.000 0.000 0.000 4.935 
4.755 11651.269 0.000 0.000 0.000 4.945 
4.765 11646.914 0.000 0.000 0.000 4.955 
4.775 11639.955 0.000 0.000 0.000 4.966 
4.785 11686.628 0.000 0.000 0.000 4.976 
4.795 11472.746 0.000 0.000 0.000 4.987 
4.805 11497.942 0.000 0.000 0.000 4.997 
4.815 11554.566 0.000 0.000 0.000 5.007 
4.825 11536.816 0.000 0.000 0.000 5.018 
4.835 11540.234 0.000 0.000 0.000 5.028 
4.845 11472.625 0.000 0.000 0.000 5.039 
4.855 11543.307 0.000 0.000 0.000 5.049 
4.865 11715.938 0.000 0.000 0.000 5.059 
4.875 11733.083 0.000 0.000 0.000 5.070 
4.885 11680.485 0.000 0.000 0.000 5.080 
4.895 11563.785 0.000 0.000 0.000 5.091 
4.905 11593.165 0.000 0.000 0.000 5.101 
4.915 11605.610 0.000 0.000 0.000 5.112 
4.925 11494.689 0.000 0.000 0.000 5.122 
4.935 11582.935 0.000 0.000 0.000 5.132 
4.945 11641.622 0.000 0.000 0.000 5.143 
4.955 11513.977 0.000 0.000 0.000 5.153 
4.965 11627.553 0.000 0.000 0.000 5.164 
4.975 11700.860 0.000 0.000 0.000 5.174 
4.985 11586.372 0.000 0.000 0.000 5.184 
4.995 11564.403 0.000 0.000 0.000 5.195 
5.005 11580.978 0.000 0.000 0.000 5.205 
5.015 11694.870 0.000 0.000 0.000 5.216 
5.025 11651.218 0.000 0.000 0.000 5.226 
5.035 11537.106 0.000 0.000 0.000 5.236 
5.045 11589.752 0.000 0.000 0.000 5.247 
5.055 11640.514 0.000 0.000 0.000 5.257 
5.065 11621.024 0.000 0.000 0.000 5.268 
5.075 11620.587 0.000 0.000 0.000 5.278 
5.085 11594.368 0.000 0.000 0.000 5.288 
5.095 11467.559 0.000 0.000 0.000 5.299 
5.105 11623.076 0.000 0.000 0.000 5.309 
5.115 11570.410 0.000 0.000 0.000 5.320 
5.125 11594.484 0.000 0.000 0.000 5.330 
5.135 11618.688 0.000 0.000 0.000 5.341 
5.145 11610.225 0.000 0.000 0.000 5.351 
5.155 11712.349 0.000 0.000 0.000 5.361 
5.165 11796.596 0.000 0.000 0.000 5.372 
5.175 11669.233 0.000 0.000 0.000 5.382 
5.185 11643.105 0.000 0.000 0.000 5.393 
5.195 11594.856 0.000 0.000 0.000 5.403 
5.205 11623.229 0.000 0.000 0.000 5.413 
5.215 11681.716 0.000 0.000 0.000 5.424 
5.225 11582.544 0.000 0.000 0.000 5.434 
5.235 11656.089 0.000 0.000 0.000 5.445 
5.245 11579.263 0.000 0.000 0.000 5.455 
5.255 11593.024 0.000 0.000 0.000 5.465 
5.265 11533.520 0.000 0.000 0.000 5.476 
5.275 11591.077 0.000 0.000 0.000 5.486 
5.285 11668.238 0.000 0.000 0.000 5.497 
5.295 11552.028 0.000 0.000 0.000 5.507 
5.305 11496.427 0.000 0.000 0.000 5.518 
5.315 11628.924 0.000 0.000 0.000 5.528 
5.325 11575.707 0.000 0.000 0.000 5.538 
5.335 11551.110 0.000 0.000 0.000 5.549 
5.345 11602.164 0.000 0.000 0.000 5.559 
5.355 11584.491 0.000 0.000 0.000 5.570 
5.365 11603.407 0.000 0.000 0.000 5.580 
5.375 11638.138 0.000 0.000 0.000 5.590 
5.385 11555.406 0.000 0.000 0.000 5.601 
5.395 11657.716 0.000 0.000 0.000 5.611 
5.405 11636.439 0.000 0.000 0.000 5.622 
5.415 11570.594 0.000 0.000 0.000 5.632 
5.425 11672.940 0.000 0.000 0.000 5.642 
5.435 11695.421 0.000 0.000 0.000 5.653 
5.445 11552.392 0.000 0.000 0.000 5.663 
5.455 11439.376 0.000 0.000 0.000 5.674 
5.465 11530.791 0.000 0.000 0.000 5.684 
5.475 11559.975 0.000 0.000 0.000 5.694 
5.485 11605.774 0.000 0.000 0.000 5.705 
5.495 11498.117 0.000 0.000 0.000 5.715 
5.506 11652.353 0.000 0.000 0.000 5.726 
5.516 11581.095 0.000 0.000 0.000 5.736 
5.526 11565.503 0.000 0.000 0.000 5.747 
5.536 11452.025 0.000 0.000 0.000 5.757 
5.546 11612.167 0.000 0.000 0.000 5.767 
5.556 11528.748 0.000 0.000 0.000 5.778 
5.566 11542.831 0.000 0.000 0.000 5.788 
5.576 11552.744 0.000 0.000 0.000 5.799 
5.586 11612.617 0.000 0.000 0.000 5.809 
5.596 11568.578 0.000 0.000 0.000 5.819 
5.606 11580.516 0.000 0.000 0.000 5.830 
5.616 11537.643 0.000 0.000 0.000 5.840 
5.626 11591.316 0.000 0.000 0.000 5.851 
5.636 11545.032 0.000 0.000 0.000 5.861 
5.646 11650.440 0.000 0.000 0.000 5.871 
5.656 11618.202 0.000 0.000 0.000 5.882 
5.666 11553.444 0.000 0.000 0.000 5.892 
5.676 11496.930 0.000 0.000 0.000 5.903 
5.686 11537.596 0.000 0.000 0.000 5.913 
5.696 11559.741 0.000 0.000 0.000 5.924 
5.706 11517.141 0.000 0.000 0.000 5.934 
5.716 11702.767 0.000 0.000 0.000 5.944 
5.726 11570.497 0.000 0.000 0.000 5.955 
5.736 11529.462 0.000 0.000 0.000 5.965 
5.746 11612.655 0.000 0.000 0.000 5.976 
5.756 11641.679 0.000 0.000 0.000 5.986 
5.766 11590.419 0.000 0.000 0.000 5.996 
5.776 11659.097 0.000 0.000 0.000 6.007 
5.786 11566.486 0.000 0.000 0.000 6.017 
5.796 11582.352 0.000 0.000 0.000 6.028 
5.806 11611.485 0.000 0.000 0.000 6.038 
5.816 11584.270 0.000 0.000 0.000 6.048 
5.826 11580.846 0.000 0.000 0.000 6.059 
5.836 11545.595 0.000 0.000 0.000 6.069 
5.846 11574.106 0.000 0.000 0.000 6.080 
5.856 11499.671 0.000 0.000 0.000 6.090 
5.866 11540.031 0.000 0.000 0.000 6.101 
5.876 11531.508 0.000 0.000 0.000 6.111 
5.886 11525.364 0.000 0.000 0.000 6.121 
5.896 11659.333 0.000 0.000 0.000 6.132 
5.906 11617.388 0.000 0.000 0.000 6.142 
5.916 11656.267 0.000 0.000 0.000 6.153 
5.926 11629.184 0.000 0.000 0.000 6.163 
5.936 11553.329 0.000 0.000 0.000 6.173 
5.946 11611.074 0.000 0.000 0.000 6.184 
5.956 11521.822 0.000 0.000 0.000 6.194 
5.966 11628.493 0.000 0.000 0.000 6.205 
5.976 11432.178 0.000 0.000 0.000 6.215 
5.986 11678.948 0.000 0.000 0.000 6.225 
5.996 11577.775 0.000 0.000 0.000 6.236 
6.006 11598.403 0.000 0.000 0.000 6.246 
6.016 11581.746 0.000 0.000 0.000 6.257 
6.026 11543.404 0.000 0.000 0.000 6.267 
6.036 11617.313 0.000 0.000 0.000 6.277 
6.046 11537.661 0.000 0.000 0.000 6.288 
6.056 11538.870 0.000 0.000 0.000 6.298 
6.066 11640.063 0.000 0.000 0.000 6.309 
6.076 11555.322 0.000 0.000 0.000 6.319 
6.086 11565.100 0.000 0.000 0.000 6.330 
6.096 11610.418 0.000 0.000 0.000 6.340 
6.106 11601.500 0.000 0.000 0.000 6.350 
6.116 11472.378 0.000 0.000 0.000 6.361 
6.126 11559.373 0.000 0.000 0.000 6.371 
6.136 11564.318 0.000 0.000 0.000 6.382 
6.146 11474.670 0.000 0.000 0.000 6.392 
6.156 11561.353 0.000 0.000 0.000 6.402 
6.166 11593.870 0.000 0.000 0.000 6.413 
6.176 11585.123 0.000 0.000 0.000 6.423 
6.186 11536.851 0.000 0.000 0.000 6.434 
6.196 11522.562 0.000 0.000 0.000 6.444 
6.206 11496.079 0.000 0.000 0.000 6.454 
6.216 11570.410 0.000 0.000 0.000 6.465 
6.226 11551.266 0.000 0.000 0.000 6.475 
6.236 11641.837 0.000 0.000 0.000 6.486 
6.246 11510.473 0.000 0.000 0.000 6.496 
6.256 11526.347 0.000 0.000 0.000 6.507 
6.266 11566.681 0.000 0.000 0.000 6.517 
6.276 11670.152 0.000 0.000 0.000 6.527 
6.286 11583.541 0.000 0.000 0.000 6.538 
6.296 11505.088 0.000 0.000 0.000 6.548 
6.306 11439.214 0.000 0.000 0.000 6.559 
6.316 11484.053 0.000 0.000 0.000 6.569 
6.326 11512.686 0.000 0.000 0.000 6.579 
6.336 11437.856 0.000 0.000 0.000 6.590 
6.346 11625.041 0.000 0.000 0.000 6.600 
6.356 11592.171 0.000 0.000 0.000 6.611 
6.366 11646.569 0.000 0.000 0.000 6.621 
6.376 11607.784 0.000 0.000 0.000 6.631 
6.386 11588.581 0.000 0.000 0.000 6.642 
6.396 11483.169 0.000 0.000 0.000 6.652 
6.406 11559.239 0.000 0.000 0.000 6.663 
6.416 11565.968 0.000 0.000 0.000 6.673 
6.426 11516.724 0.000 0.000 0.000 6.683 
6.436 11513.901 0.000 0.000 0.000 6.694 
6.446 11450.887 0.000 0.000 0.000 6.704 
6.456 11536.964 0.000 0.000 0.000 6.715 
6.466 11554.996 0.000 0.000 0.000 6.725 
6.476 11479.313 0.000 0.000 0.000 6.736 
6.486 11504.361 0.000 0.000 0.000 6.746 
6.496 11466.508 0.000 0.000 0.000 6.756 
6.507 11442.008 0.000 0.000 0.000 6.767 
6.517 11522.029 0.000 0.000 0.000 6.777 
6.527 11566.565 0.000 0.000 0.000 6.788 
6.537 11564.869 0.000 0.000 0.000 6.798 
6.547 11514.603 0.000 0.000 0.000 6.808 
6.557 11520.666 0.000 0.000 0.000 6.819 
6.567 11538.540 0.000 0.000 0.000 6.829 
6.577 11518.746 0.000 0.000 0.000 6.840 
6.587 11544.438 0.000 0.000 0.000 6.850 
6.597 11511.582 0.000 0.000 0.000 6.860 
6.607 11452.425 0.000 0.000 0.000 6.871 
6.617 11462.967 0.000 0.000 0.000 6.881 
6.627 11479.516 0.000 0.000 0.000 6.892 
6.637 11417.273 0.000 0.000 0.000 6.902 
6.647 11591.113 0.000 0.000 0.000 6.913 
6.657 11580.813 0.000 0.000 0.000 6.923 
6.667 11500.191 0.000 0.000 0.000 6.933 
6.677 11564.526 0.000 0.000 0.000 6.944 
6.687 11517.461 0.000 0.000 0.000 6.954 
6.697 11473.410 0.000 0.000 0.000 6.965 
6.707 11563.765 0.000 0.000 0.000 6.975 
6.717 11516.002 0.000 0.000 0.000 6.985 
6.727 11498.072 0.000 0.000 0.000 6.996 
6.737 11545.770 0.000 0.000 0.000 7.006 
6.747 11461.516 0.000 0.000 0.000 7.017 
6.757 11502.202 0.000 0.000 0.000 7.027 
6.767 11485.341 0.000 0.000 0.000 7.037 
6.777 11458.877 0.000 0.000 0.000 7.048 
6.787 11524.108 0.000 0.000 0.000 7.058 
6.797 11573.897 0.000 0.000 0.000 7.069 
6.807 11590.181 0.000 0.000 0.000 7.079 
6.817 11527.763 0.000 0.000 0.000 7.089 
6.827 11493.454 0.000 0.000 0.000 7.100 
6.837 11468.355 0.000 0.000 0.000 7.110 
6.847 11440.101 0.000 0.000 0.000 7.121 
6.857 11407.402 0.000 0.000 0.000 7.131 
6.867 11397.194 0.000 0.000 0.000 7.142 
6.877 11407.913 0.000 0.000 0.000 7.152 
6.887 11496.331 0.000 0.000 0.000 7.162 
6.897 11395.349 0.000 0.000 0.000 7.173 
6.907 11559.017 0.000 0.000 0.000 7.183 
6.917 11631.212 0.000 0.000 0.000 7.194 
6.927 11479.397 0.000 0.000 0.000 7.204 
6.937 11522.811 0.000 0.000 0.000 7.214 
6.947 11464.222 0.000 0.000 0.000 7.225 
6.957 11457.581 0.000 0.000 0.000 7.235 
6.967 11504.477 0.000 0.000 0.000 7.246 
6.977 11424.729 0.000 0.000 0.000 7.256 
6.987 11448.606 0.000 0.000 0.000 7.266 
6.997 11499.591 0.000 0.000 0.000 7.277 
7.007 11371.881 0.000 0.000 0.000 7.287 
7.017 11509.311 0.000 0.000 0.000 7.298 
7.027 11425.260 0.000 0.000 0.000 7.308 
7.037 11467.395 0.000 0.000 0.000 7.319 
7.047 11505.439 0.000 0.000 0.000 7.329 
7.057 11532.024 0.000 0.000 0.000 7.339 
7.067 11421.703 0.000 0.000 0.000 7.350 
7.077 11401.964 0.000 0.000 0.000 7.360 
7.087 11443.806 0.000 0.000 0.000 7.371 
7.097 11410.579 0.000 0.000 0.000 7.381 
7.107 11513.067 0.000 0.000 0.000 7.391 
7.117 11380.058 0.000 0.000 0.000 7.402 
7.127 11401.415 0.000 0.000 0.000 7.412 
7.137 11365.378 0.000 0.000 0.000 7.423 
7.147 11389.388 0.000 0.000 0.000 7.433 
7.157 11462.690 0.000 0.000 0.000 7.443 
7.167 11328.807 0.000 0.000 0.000 7.454 
7.177 11406.672 0.000 0.000 0.000 7.464 
7.187 11286.864 0.000 0.000 0.000 7.475 
7.197 11444.838 0.000 0.000 0.000 7.485 
7.207 11352.562 0.000 0.000 0.000 7.495 
7.217 11430.858 0.000 0.000 0.000 7.506 
7.227 11448.861 0.000 0.000 0.000 7.516 
7.237 11421.297 0.000 0.000 0.000 7.527 
7.247 11376.945 0.000 0.000 0.000 7.537 
7.257 11448.716 0.000 0.000 0.000 7.548 
7.267 11373.697 0.000 0.000 0.000 7.558 
7.277 11509.421 0.000 0.000 0.000 7.568 
7.287 11554.303 0.000 0.000 0.000 7.579 
7.297 11360.742 0.000 0.000 0.000 7.589 
7.307 11462.745 0.000 0.000 0.000 7.600 
7.317 11443.343 0.000 0.000 0.000 7.610 
7.327 11499.964 0.000 0.000 0.000 7.620 
7.337 11377.382 0.000 0.000 0.000 7.631 
7.347 11352.285 0.000 0.000 0.000 7.641 
7.357 11473.604 0.000 0.000 0.000 7.652 
7.367 11370.200 0.000 0.000 0.000 7.662 
7.377 11396.195 0.000 0.000 0.000 7.672 
7.387 11342.211 0.000 0.000 0.000 7.683 
7.397 11405.212 0.000 0.000 0.000 7.693 
7.407 11324.198 0.000 0.000 0.000 7.704 
7.417 11317.882 0.000 0.000 0.000 7.714 
7.427 11401.460 0.000 0.000 0.000 7.725 
7.437 11383.350 0.000 0.000 0.000 7.735 
7.447 11389.356 0.000 0.000 0.000 7.745 
7.457 11491.015 0.000 0.000 0.000 7.756 
7.467 11394.673 0.000 0.000 0.000 7.766 
7.477 11220.339 0.000 0.000 0.000 7.777 
7.487 11438.256 0.000 0.000 0.000 7.787 
7.497 11431.775 0.000 0.000 0.000 7.797 
7.508 11317.593 0.000 0.000 0.000 7.808 
7.518 11410.574 0.000 0.000 0.000 7.818 
7.528 11417.829 0.000 0.000 0.000 7.829 
7.538 11417.724 0.000 0.000 0.000 7.839 
7.548 11440.425 0.000 0.000 0.000 7.849 
7.558 11296.178 0.000 0.000 0.000 7.860 
7.568 11319.380 0.000 0.000 0.000 7.870 
7.578 11377.576 0.000 0.000 0.000 7.881 
7.588 11393.753 0.000 0.000 0.000 7.891 
7.598 11339.753 0.000 0.000 0.000 7.902 
7.608 11348.334 0.000 0.000 0.000 7.912 
7.618 11372.601 0.000 0.000 0.000 7.922 
7.628 11340.364 0.000 0.000 0.000 7.933 
7.638 11313.107 0.000 0.000 0.000 7.943 
7.648 11284.986 0.000 0.000 0.000 7.954 
7.658 11347.180 0.000 0.000 0.000 7.964 
7.668 11423.235 0.000 0.000 0.000 7.974 
7.678 11395.841 0.000 0.000 0.000 7.985 
7.688 11493.314 0.000 0.000 0.000 7.995 
7.698 11336.996 0.000 0.000 0.000 8.006 
7.708 11229.340 0.000 0.000 0.000 8.016 
7.718 11378.128 0.000 0.000 0.000 8.026 
7.728 11352.551 0.000 0.000 0.000 8.037 
7.738 11378.988 0.000 0.000 0.000 8.047 
7.748 11392.938 0.000 0.000 0.000 8.058 
7.758 11337.745 0.000 0.000 0.000 8.068 
7.768 11358.892 0.000 0.000 0.000 8.078 
7.778 11240.766 0.000 0.000 0.000 8.089 
7.788 11373.125 0.000 0.000 0.000 8.099 
7.798 11326.158 0.000 0.000 0.000 8.110 
7.808 11298.576 0.000 0.000 0.000 8.120 
7.818 11319.696 0.000 0.000 0.000 8.131 
7.828 11348.123 0.000 0.000 0.000 8.141 
7.838 11315.918 0.000 0.000 0.000 8.151 
7.848 11272.841 0.000 0.000 0.000 8.162 
7.858 11286.728 0.000 0.000 0.000 8.172 
7.868 11302.363 0.000 0.000 0.000 8.183 
7.878 11246.008 0.000 0.000 0.000 8.193 
7.888 11350.328 0.000 0.000 0.000 8.203 
7.898 11305.409 0.000 0.000 0.000 8.214 
7.908 11333.317 0.000 0.000 0.000 8.224 
7.918 11158.666 0.000 0.000 0.000 8.235 
7.928 11392.353 0.000 0.000 0.000 8.245 
7.938 11385.492 0.000 0.000 0.000 8.255 
7.948 11380.248 0.000 0.000 0.000 8.266 
7.958 11291.937 0.000 0.000 0.000 8.276 
7.968 11130.301 0.000 0.000 0.000 8.287 
7.978 11306.584 0.000 0.000 0.000 8.297 
7.988 11154.313 0.000 0.000 0.000 8.308 
7.998 11176.874 0.000 0.000 0.000 8.318 
8.008 11230.351 0.000 0.000 0.000 8.328 
8.018 11286.753 0.000 0.000 0.000 8.339 
8.028 11217.544 0.000 0.000 0.000 8.349 
8.038 11313.724 0.000 0.000 0.000 8.360 
8.048 11271.211 0.000 0.000 0.000 8.370 
8.058 11233.145 0.000 0.000 0.000 8.380 
8.068 11166.882 0.000 0.000 0.000 8.391 
8.078 11295.992 0.000 0.000 0.000 8.401 
8.088 11315.436 0.000 0.000 0.000 8.412 
8.098 11320.682 0.000 0.000 0.000 8.422 
8.108 11294.658 0.000 0.000 0.000 8.432 
8.118 11335.877 0.000 0.000 0.000 8.443 
8.128 11207.736 0.000 0.000 0.000 8.453 
8.138 11242.858 0.000 0.000 0.000 8.464 
8.148 11256.947 0.000 0.000 0.000 8.474 
8.158 11284.356 0.000 0.000 0.000 8.484 
8.168 11237.737 0.000 0.000 0.000 8.495 
8.178 11192.908 0.000 0.000 0.000 8.505 
8.188 11227.496 0.000 0.000 0.000 8.516 
8.198 11282.504 0.000 0.000 0.000 8.526 
8.208 11296.875 0.000 0.000 0.000 8.537 
8.218 11202.518 0.000 0.000 0.000 8.547 
8.228 11264.727 0.000 0.000 0.000 8.557 
8.238 11219.181 0.000 0.000 0.000 8.568 
8.248 11178.144 0.000 0.000 0.000 8.578 
8.258 11238.288 0.000 0.000 0.000 8.589 
8.268 11064.661 0.000 0.000 0.000 8.599 
8.278 11316.133 0.000 0.000 0.000 8.609 
8.288 11156.714 0.000 0.000 0.000 8.620 
8.298 11196.616 0.000 0.000 0.000 8.630 
8.308 11220.018 0.000 0.000 0.000 8.641 
8.318 11182.657 0.000 0.000 0.000 8.651 
8.328 11241.615 0.000 0.000 0.000 8.661 
8.338 11220.003 0.000 0.000 0.000 8.672 
8.348 11150.482 0.000 0.000 0.000 8.682 
8.358 11137.807 0.000 0.000 0.000 8.693 
8.368 11326.118 0.000 0.000 0.000 8.703 
8.378 11188.842 0.000 0.000 0.000 8.714 
8.388 11240.146 0.000 0.000 0.000 8.724 
8.398 11055.520 0.000 0.000 0.000 8.734 
8.408 11252.655 0.000 0.000 0.000 8.745 
8.418 11089.973 0.000 0.000 0.000 8.755 
8.428 11089.505 0.000 0.000 0.000 8.766 
8.438 11219.959 0.000 0.000 0.000 8.776 
8.448 11133.648 0.000 0.000 0.000 8.786 
8.458 11134.095 0.000 0.000 0.000 8.797 
8.468 11252.005 0.000 0.000 0.000 8.807 
8.478 11104.283 0.000 0.000 0.000 8.818 
8.488 11162.194 0.000 0.000 0.000 8.828 
8.498 11024.449 0.000 0.000 0.000 8.838 
8.509 11179.644 0.000 0.000 0.000 8.849 
8.519 11155.683 0.000 0.000 0.000 8.859 
8.529 11208.007 0.000 0.000 0.000 8.870 
8.539 11129.802 0.000 0.000 0.000 8.880 
8.549 11154.901 0.000 0.000 0.000 8.890 
8.559 11185.494 0.000 0.000 0.000 8.901 
8.569 11179.022 0.000 0.000 0.000 8.911 
8.579 11247.564 0.000 0.000 0.000 8.922 
8.589 11037.265 0.000 0.000 0.000 8.932 
8.599 11158.231 0.000 0.000 0.000 8.943 
8.609 11103.359 0.000 0.000 0.000 8.953 
8.619 11193.648 0.000 0.000 0.000 8.963 
8.629 11122.482 0.000 0.000 0.000 8.974 
8.639 11154.094 0.000 0.000 0.000 8.984 
8.649 10974.408 0.000 0.000 0.000 8.995 
8.659 11070.194 0.000 0.000 0.000 9.005 
8.669 11072.404 0.000 0.000 0.000 9.015 
8.679 11193.433 0.000 0.000 0.000 9.026 
8.689 11083.148 0.000 0.000 0.000 9.036 
8.699 11117.589 0.000 0.000 0.000 9.047 
8.709 11222.536 0.000 0.000 0.000 9.057 
8.719 11134.168 0.000 0.000 0.000 9.067 
8.729 11160.292 0.000 0.000 0.000 9.078 
8.739 11034.720 0.000 0.000 0.000 9.088 
8.749 11113.411 0.000 0.000 0.000 9.099 
8.759 11058.063 0.000 0.000 0.000 9.109 
8.769 11118.302 0.000 0.000 0.000 9.120 
8.779 10962.926 0.000 0.000 0.000 9.130 
8.789 11044.563 0.000 0.000 0.000 9.140 
8.799 11100.129 0.000 0.000 0.000 9.151 
8.809 11056.891 0.000 0.000 0.000 9.161 
8.819 10971.965 0.000 0.000 0.000 9.172 
8.829 11119.400 0.000 0.000 0.000 9.182 
8.839 11021.198 0.000 0.000 0.000 9.192 
8.849 11057.617 0.000 0.000 0.000 9.203 
8.859 11017.097 0.000 0.000 0.000 9.213 
8.869 11027.752 0.000 0.000 0.000 9.224 
8.879 11005.272 0.000 0.000 0.000 9.234 
8.889 11115.803 0.000 0.000 0.000 9.244 
8.899 11002.883 0.000 0.000 0.000 9.255 
8.909 11070.508 0.000 0.000 0.000 9.265 
8.919 11029.115 0.000 0.000 0.000 9.276 
8.929 10987.610 0.000 0.000 0.000 9.286 
8.939 11024.583 0.000 0.000 0.000 9.296 
8.949 10954.196 0.000 0.000 0.000 9.307 
8.959 11086.435 0.000 0.000 0.000 9.317 
8.969 10970.666 0.000 0.000 0.000 9.328 
8.979 10907.041 0.000 0.000 0.000 9.338 
8.989 11089.786 0.000 0.000 0.000 9.349 
8.999 11072.801 0.000 0.000 0.000 9.359 
9.009 11036.820 0.000 0.000 0.000 9.369 
9.019 11069.390 0.000 0.000 0.000 9.380 
9.029 10983.340 0.000 0.000 0.000 9.390 
9.039 11026.604 0.000 0.000 0.000 9.401 
9.049 10929.393 0.000 0.000 0.000 9.411 
9.059 11004.539 0.000 0.000 0.000 9.421 
9.069 10962.749 0.000 0.000 0.000 9.432 
9.079 10970.339 0.000 0.000 0.000 9.442 
9.089 10932.436 0.000 0.000 0.000 9.453 
9.099 10925.875 0.000 0.000 0.000 9.463 
9.109 11051.742 0.000 0.000 0.000 9.473 
9.119 10945.654 0.000 0.000 0.000 9.484 
9.129 10934.382 0.000 0.000 0.000 9.494 
9.139 10886.543 0.000 0.000 0.000 9.505 
9.149 10963.453 0.000 0.000 0.000 9.515 
9.159 10850.426 0.000 0.000 0.000 9.526 
9.169 11051.186 0.000 0.000 0.000 9.536 
9.179 10955.026 0.000 0.000 0.000 9.546 
9.189 10924.227 0.000 0.000 0.000 9.557 
9.199 10895.606 0.000 0.000 0.000 9.567 
9.209 10950.316 0.000 0.000 0.000 9.578 
9.219 10850.735 0.000 0.000 0.000 9.588 
9.229 10843.718 0.000 0.000 0.000 9.598 
9.239 11017.428 0.000 0.000 0.000 9.609 
9.249 10812.549 0.000 0.000 0.000 9.619 
9.259 10976.971 0.000 0.000 0.000 9.630 
9.269 10984.104 0.000 0.000 0.000 9.640 
9.279 10912.448 0.000 0.000 0.000 9.650 
9.289 10950.766 0.000 0.000 0.000 9.661 
9.299 10969.631 0.000 0.000 0.000 9.671 
9.309 11005.901 0.000 0.000 0.000 9.682 
9.319 10841.098 0.000 0.000 0.000 9.692 
9.329 10968.234 0.000 0.000 0.000 9.703 
9.339 10967.888 0.000 0.000 0.000 9.713 
9.349 10796.588 0.000 0.000 0.000 9.723 
9.359 10848.420 0.000 0.000 0.000 9.734 
9.369 10930.529 0.000 0.000 0.000 9.744 
9.379 10870.481 0.000 0.000 0.000 9.755 
9.389 10981.673 0.000 0.000 0.000 9.765 
9.399 10794.412 0.000 0.000 0.000 9.775 
9.409 10874.913 0.000 0.000 0.000 9.786 
9.419 10854.693 0.000 0.000 0.000 9.796 
9.429 10806.760 0.000 0.000 0.000 9.807 
9.439 10840.606 0.000 0.000 0.000 9.817 
9.449 10891.315 0.000 0.000 0.000 9.827 
9.459 10912.985 0.000 0.000 0.000 9.838 
9.469 10805.526 0.000 0.000 0.000 9.848 
9.479 10894.529 0.000 0.000 0.000 9.859 
9.489 10796.367 0.000 0.000 0.000 9.869 
9.499 10849.014 0.000 0.000 0.000 9.879 
9.510 10804.193 0.000 0.000 0.000 9.890 
9.520 10831.408 0.000 0.000 0.000 9.900 
9.530 10832.917 0.000 0.000 0.000 9.911 
9.540 10782.556 0.000 0.000 0.000 9.921 
9.550 10858.147 0.000 0.000 0.000 9.932 
9.560 10820.826 0.000 0.000 0.000 9.942 
9.570 10855.472 0.000 0.000 0.000 9.952 
9.580 10816.449 0.000 0.000 0.000 9.963 
9.590 10838.917 0.000 0.000 0.000 9.973 
9.600 10767.350 0.000 0.000 0.000 9.984 
9.610 10844.520 0.000 0.000 0.000 9.994 
9.620 10838.978 0.000 0.000 0.000 10.004 
9.630 10824.670 0.000 0.000 0.000 10.015 
9.640 10730.119 0.000 0.000 0.000 10.025 
9.650 10845.248 0.000 0.000 0.000 10.036 
9.660 10779.597 0.000 0.000 0.000 10.046 
9.670 10818.515 0.000 0.000 0.000 10.056 
9.680 10813.965 0.000 0.000 0.000 10.067 
9.690 10906.686 0.000 0.000 0.000 10.077 
9.700 10643.829 0.000 0.000 0.000 10.088 
9.710 10763.609 0.000 0.000 0.000 10.098 
9.720 10788.058 0.000 0.000 0.000 10.109 
9.730 10941.501 0.000 0.000 0.000 10.119 
9.740 10881.223 0.000 0.000 0.000 10.129 
9.750 10756.096 0.000 0.000 0.000 10.140 
9.760 10841.517 0.000 0.000 0.000 10.150 
9.770 10870.995 0.000 0.000 0.000 10.161 
9.780 10770.950 0.000 0.000 0.000 10.171 
9.790 10716.693 0.000 0.000 0.000 10.181 
9.800 10655.460 0.000 0.000 0.000 10.192 
9.810 10862.566 0.000 0.000 0.000 10.202 
9.820 10737.396 0.000 0.000 0.000 10.213 
9.830 10776.272 0.000 0.000 0.000 10.223 
9.840 10698.787 0.000 0.000 0.000 10.233 
9.850 10675.800 0.000 0.000 0.000 10.244 
9.860 10799.409 0.000 0.000 0.000 10.254 
9.870 10820.952 0.000 0.000 0.000 10.265 
9.880 10632.324 0.000 0.000 0.000 10.275 
9.890 10753.730 0.000 0.000 0.000 10.285 
9.900 10700.446 0.000 0.000 0.000 10.296 
9.910 10732.033 0.000 0.000 0.000 10.306 
9.920 10645.674 0.000 0.000 0.000 10.317 
9.930 10736.334 0.000 0.000 0.000 10.327 
9.940 10636.239 0.000 0.000 0.000 10.338 
9.950 10804.962 0.000 0.000 0.000 10.348 
9.960 10648.751 0.000 0.000 0.000 10.358 
9.970 10646.182 0.000 0.000 0.000 10.369 
9.980 10663.806 0.000 0.000 0.000 10.379 
9.990 10726.527 0.000 0.000 0.000 10.390 
10.000 10790.064 0.000 0.000 0.000 10.400 
