"Test Type","Manual"
"Method Name:","C:\INSTRON\user\template\Sp15_245Lsect001_group-01_pekk_composite_tensiletest.mtM"
"Name:","4FtPerMin"
"Operator ID:","Jaques"
"Company:","BSU"
"Lab name:",""
"Test date:","1/17/22"
"Temperature:",""
"Humidity:",""
"Note 1:",""
"Note 2:",""
"Note 3:",""
"Geometry:","Circular"
"Specimen",0
"Specimen name:",""
"Width:",6.350000,"mm"
"Thickness:",1.524000,"mm"
"Length:",12.000000,"mm"
"Diameter:",5.000000,"um"
"Inner diameter:",0.500000,"mm"
"Outer diameter:",1.000000,"mm"
"Wall thickness:",0.500000,"mm"
"Area:",19.634954,"um*um"
"Linear density:",1.000000,"den"
"Sled weight:",9.806650,"N"
"Loading span:",0.000000,"mm"
"Support span:",1.000000,"mm"
"Span ratio:","2"
"Fixture type:","3-point"
"Comment:",""
"Included"
"Time sec","Stress Pa","Cycle Count","Total Cycle Count","Repetitions Count","Strain [Exten.] %"
0.000 -1733.613 0.000 0.000 0.000 0.000 
0.010 1070.169 0.000 0.000 0.000 0.010 
0.020 767.994 0.000 0.000 0.000 0.021 
0.030 14.308 0.000 0.000 0.000 0.031 
0.040 1787.987 0.000 0.000 0.000 0.042 
0.050 2179.995 0.000 0.000 0.000 0.052 
0.060 2925.078 0.000 0.000 0.000 0.062 
0.070 1635.347 0.000 0.000 0.000 0.073 
0.080 3248.370 0.000 0.000 0.000 0.083 
0.090 4520.027 0.000 0.000 0.000 0.094 
0.100 5742.965 0.000 0.000 0.000 0.104 
0.110 3941.887 0.000 0.000 0.000 0.115 
0.120 4976.934 0.000 0.000 0.000 0.125 
0.130 5811.602 0.000 0.000 0.000 0.135 
0.140 6661.409 0.000 0.000 0.000 0.146 
0.150 6395.118 0.000 0.000 0.000 0.156 
0.160 7470.492 0.000 0.000 0.000 0.167 
0.170 7432.647 0.000 0.000 0.000 0.177 
0.180 9329.956 0.000 0.000 0.000 0.187 
0.190 7833.268 0.000 0.000 0.000 0.198 
0.200 8349.581 0.000 0.000 0.000 0.208 
0.210 9988.519 0.000 0.000 0.000 0.219 
0.220 10995.596 0.000 0.000 0.000 0.229 
0.230 11763.268 0.000 0.000 0.000 0.239 
0.240 11745.479 0.000 0.000 0.000 0.250 
0.250 11274.287 0.000 0.000 0.000 0.260 
0.260 12399.645 0.000 0.000 0.000 0.271 
0.270 12603.308 0.000 0.000 0.000 0.281 
0.280 13479.461 0.000 0.000 0.000 0.291 
0.290 13440.939 0.000 0.000 0.000 0.302 
0.300 13298.674 0.000 0.000 0.000 0.312 
0.310 15880.993 0.000 0.000 0.000 0.323 
0.320 15751.736 0.000 0.000 0.000 0.333 
0.330 16439.700 0.000 0.000 0.000 0.344 
0.340 16810.816 0.000 0.000 0.000 0.354 
0.350 17408.778 0.000 0.000 0.000 0.364 
0.360 18175.479 0.000 0.000 0.000 0.375 
0.370 19360.151 0.000 0.000 0.000 0.385 
0.380 17324.861 0.000 0.000 0.000 0.396 
0.390 18311.941 0.000 0.000 0.000 0.406 
0.400 19336.378 0.000 0.000 0.000 0.416 
0.410 20194.057 0.000 0.000 0.000 0.427 
0.420 20617.856 0.000 0.000 0.000 0.437 
0.430 20457.795 0.000 0.000 0.000 0.448 
0.440 21386.165 0.000 0.000 0.000 0.458 
0.450 21209.824 0.000 0.000 0.000 0.468 
0.460 20594.921 0.000 0.000 0.000 0.479 
0.470 22241.364 0.000 0.000 0.000 0.489 
0.480 22408.045 0.000 0.000 0.000 0.500 
0.490 24742.102 0.000 0.000 0.000 0.510 
0.501 23483.438 0.000 0.000 0.000 0.521 
0.511 25123.929 0.000 0.000 0.000 0.531 
0.521 25400.271 0.000 0.000 0.000 0.541 
0.531 25587.166 0.000 0.000 0.000 0.552 
0.541 26225.982 0.000 0.000 0.000 0.562 
0.551 26635.234 0.000 0.000 0.000 0.573 
0.561 25490.224 0.000 0.000 0.000 0.583 
0.571 28378.194 0.000 0.000 0.000 0.593 
0.581 27383.536 0.000 0.000 0.000 0.604 
0.591 27076.746 0.000 0.000 0.000 0.614 
0.601 28311.445 0.000 0.000 0.000 0.625 
0.611 29128.792 0.000 0.000 0.000 0.635 
0.621 30834.900 0.000 0.000 0.000 0.645 
0.631 29695.054 0.000 0.000 0.000 0.656 
0.641 32603.925 0.000 0.000 0.000 0.666 
0.651 32231.844 0.000 0.000 0.000 0.677 
0.661 32127.213 0.000 0.000 0.000 0.687 
0.671 31783.293 0.000 0.000 0.000 0.697 
0.681 33406.078 0.000 0.000 0.000 0.708 
0.691 33498.472 0.000 0.000 0.000 0.718 
0.701 33543.930 0.000 0.000 0.000 0.729 
0.711 33866.070 0.000 0.000 0.000 0.739 
0.721 35394.408 0.000 0.000 0.000 0.750 
0.731 34785.427 0.000 0.000 0.000 0.760 
0.741 35720.675 0.000 0.000 0.000 0.770 
0.751 36821.013 0.000 0.000 0.000 0.781 
0.761 35267.423 0.000 0.000 0.000 0.791 
0.771 37049.587 0.000 0.000 0.000 0.802 
0.781 36865.219 0.000 0.000 0.000 0.812 
0.791 39783.153 0.000 0.000 0.000 0.822 
0.801 39718.368 0.000 0.000 0.000 0.833 
0.811 40895.256 0.000 0.000 0.000 0.843 
0.821 39572.217 0.000 0.000 0.000 0.854 
0.831 40834.281 0.000 0.000 0.000 0.864 
0.841 40488.543 0.000 0.000 0.000 0.874 
0.851 41277.643 0.000 0.000 0.000 0.885 
0.861 42703.440 0.000 0.000 0.000 0.895 
0.871 43048.874 0.000 0.000 0.000 0.906 
0.881 42849.290 0.000 0.000 0.000 0.916 
0.891 43102.997 0.000 0.000 0.000 0.927 
0.901 43295.859 0.000 0.000 0.000 0.937 
0.911 43854.964 0.000 0.000 0.000 0.947 
0.921 45069.819 0.000 0.000 0.000 0.958 
0.931 43768.230 0.000 0.000 0.000 0.968 
0.941 44645.728 0.000 0.000 0.000 0.979 
0.951 46696.350 0.000 0.000 0.000 0.989 
0.961 46597.072 0.000 0.000 0.000 0.999 
0.971 47732.832 0.000 0.000 0.000 1.010 
0.981 48964.281 0.000 0.000 0.000 1.020 
0.991 48827.362 0.000 0.000 0.000 1.031 
1.001 48506.630 0.000 0.000 0.000 1.041 
1.011 49440.177 0.000 0.000 0.000 1.051 
1.021 50389.412 0.000 0.000 0.000 1.062 
1.031 49904.169 0.000 0.000 0.000 1.072 
1.041 50446.957 0.000 0.000 0.000 1.083 
1.051 51335.660 0.000 0.000 0.000 1.093 
1.061 51230.020 0.000 0.000 0.000 1.104 
1.071 52329.447 0.000 0.000 0.000 1.114 
1.081 53198.250 0.000 0.000 0.000 1.124 
1.091 52982.972 0.000 0.000 0.000 1.135 
1.101 53352.779 0.000 0.000 0.000 1.145 
1.111 53834.688 0.000 0.000 0.000 1.156 
1.121 54461.584 0.000 0.000 0.000 1.166 
1.131 54174.749 0.000 0.000 0.000 1.176 
1.141 55740.891 0.000 0.000 0.000 1.187 
1.151 55675.790 0.000 0.000 0.000 1.197 
1.161 56246.612 0.000 0.000 0.000 1.208 
1.171 57301.022 0.000 0.000 0.000 1.218 
1.181 58342.192 0.000 0.000 0.000 1.228 
1.191 57356.550 0.000 0.000 0.000 1.239 
1.201 57789.739 0.000 0.000 0.000 1.249 
1.211 59246.861 0.000 0.000 0.000 1.260 
1.221 60298.853 0.000 0.000 0.000 1.270 
1.231 57984.604 0.000 0.000 0.000 1.280 
1.241 62136.967 0.000 0.000 0.000 1.291 
1.251 61148.642 0.000 0.000 0.000 1.301 
1.261 61554.364 0.000 0.000 0.000 1.312 
1.271 62304.194 0.000 0.000 0.000 1.322 
1.281 62729.666 0.000 0.000 0.000 1.333 
1.291 63957.469 0.000 0.000 0.000 1.343 
1.301 62290.592 0.000 0.000 0.000 1.353 
1.311 63730.171 0.000 0.000 0.000 1.364 
1.321 63296.978 0.000 0.000 0.000 1.374 
1.331 64759.316 0.000 0.000 0.000 1.385 
1.341 63649.242 0.000 0.000 0.000 1.395 
1.351 65092.420 0.000 0.000 0.000 1.405 
1.361 67181.957 0.000 0.000 0.000 1.416 
1.371 65391.291 0.000 0.000 0.000 1.426 
1.381 66797.928 0.000 0.000 0.000 1.437 
1.391 66650.384 0.000 0.000 0.000 1.447 
1.401 67112.762 0.000 0.000 0.000 1.457 
1.411 68275.764 0.000 0.000 0.000 1.468 
1.421 69633.958 0.000 0.000 0.000 1.478 
1.431 69246.636 0.000 0.000 0.000 1.489 
1.441 69566.570 0.000 0.000 0.000 1.499 
1.451 70479.393 0.000 0.000 0.000 1.510 
1.461 71000.026 0.000 0.000 0.000 1.520 
1.471 71488.442 0.000 0.000 0.000 1.530 
1.481 71626.304 0.000 0.000 0.000 1.541 
1.491 73509.936 0.000 0.000 0.000 1.551 
1.502 72980.348 0.000 0.000 0.000 1.562 
1.512 71864.540 0.000 0.000 0.000 1.572 
1.522 74753.494 0.000 0.000 0.000 1.582 
1.532 74145.900 0.000 0.000 0.000 1.593 
1.542 75097.377 0.000 0.000 0.000 1.603 
1.552 75922.332 0.000 0.000 0.000 1.614 
1.562 76992.088 0.000 0.000 0.000 1.624 
1.572 76066.300 0.000 0.000 0.000 1.634 
1.582 76590.068 0.000 0.000 0.000 1.645 
1.592 77121.141 0.000 0.000 0.000 1.655 
1.602 79050.559 0.000 0.000 0.000 1.666 
1.612 78892.445 0.000 0.000 0.000 1.676 
1.622 78053.374 0.000 0.000 0.000 1.686 
1.632 80029.162 0.000 0.000 0.000 1.697 
1.642 78770.169 0.000 0.000 0.000 1.707 
1.652 81512.355 0.000 0.000 0.000 1.718 
1.662 80588.635 0.000 0.000 0.000 1.728 
1.672 81070.611 0.000 0.000 0.000 1.739 
1.682 81502.893 0.000 0.000 0.000 1.749 
1.692 82112.940 0.000 0.000 0.000 1.759 
1.702 83427.037 0.000 0.000 0.000 1.770 
1.712 83598.503 0.000 0.000 0.000 1.780 
1.722 83388.481 0.000 0.000 0.000 1.791 
1.732 83694.654 0.000 0.000 0.000 1.801 
1.742 84102.496 0.000 0.000 0.000 1.811 
1.752 85636.566 0.000 0.000 0.000 1.822 
1.762 83672.650 0.000 0.000 0.000 1.832 
1.772 85663.307 0.000 0.000 0.000 1.843 
1.782 87700.770 0.000 0.000 0.000 1.853 
1.792 85968.022 0.000 0.000 0.000 1.863 
1.802 88032.646 0.000 0.000 0.000 1.874 
1.812 88085.285 0.000 0.000 0.000 1.884 
1.822 88312.650 0.000 0.000 0.000 1.895 
1.832 89567.282 0.000 0.000 0.000 1.905 
1.842 90223.801 0.000 0.000 0.000 1.916 
1.852 88768.528 0.000 0.000 0.000 1.926 
1.862 90863.257 0.000 0.000 0.000 1.936 
1.872 90097.907 0.000 0.000 0.000 1.947 
1.882 90470.136 0.000 0.000 0.000 1.957 
1.892 93308.432 0.000 0.000 0.000 1.968 
1.902 91791.913 0.000 0.000 0.000 1.978 
1.912 94075.254 0.000 0.000 0.000 1.988 
1.922 94559.315 0.000 0.000 0.000 1.999 
1.932 92524.248 0.000 0.000 0.000 2.009 
1.942 94739.369 0.000 0.000 0.000 2.020 
1.952 96705.326 0.000 0.000 0.000 2.030 
1.962 94214.683 0.000 0.000 0.000 2.040 
1.972 95984.778 0.000 0.000 0.000 2.051 
1.982 96748.229 0.000 0.000 0.000 2.061 
1.992 95700.770 0.000 0.000 0.000 2.072 
2.002 98342.183 0.000 0.000 0.000 2.082 
2.012 97410.513 0.000 0.000 0.000 2.092 
2.022 99059.239 0.000 0.000 0.000 2.103 
2.032 98604.384 0.000 0.000 0.000 2.113 
2.042 99430.665 0.000 0.000 0.000 2.124 
2.052 98795.682 0.000 0.000 0.000 2.134 
2.062 99757.339 0.000 0.000 0.000 2.145 
2.072 100475.704 0.000 0.000 0.000 2.155 
2.082 102080.807 0.000 0.000 0.000 2.165 
2.092 102918.247 0.000 0.000 0.000 2.176 
2.102 103892.541 0.000 0.000 0.000 2.186 
2.112 102566.760 0.000 0.000 0.000 2.197 
2.122 103957.713 0.000 0.000 0.000 2.207 
2.132 104228.049 0.000 0.000 0.000 2.217 
2.142 104539.941 0.000 0.000 0.000 2.228 
2.152 103616.927 0.000 0.000 0.000 2.238 
2.162 105083.586 0.000 0.000 0.000 2.249 
2.172 105382.543 0.000 0.000 0.000 2.259 
2.182 106522.718 0.000 0.000 0.000 2.269 
2.192 106016.367 0.000 0.000 0.000 2.280 
2.202 106887.386 0.000 0.000 0.000 2.290 
2.212 108586.791 0.000 0.000 0.000 2.301 
2.222 108702.769 0.000 0.000 0.000 2.311 
2.232 109452.313 0.000 0.000 0.000 2.322 
2.242 109662.962 0.000 0.000 0.000 2.332 
2.252 109870.325 0.000 0.000 0.000 2.342 
2.262 109630.668 0.000 0.000 0.000 2.353 
2.272 110418.195 0.000 0.000 0.000 2.363 
2.282 112350.375 0.000 0.000 0.000 2.374 
2.292 112041.756 0.000 0.000 0.000 2.384 
2.302 112554.469 0.000 0.000 0.000 2.394 
2.312 112209.510 0.000 0.000 0.000 2.405 
2.322 114324.381 0.000 0.000 0.000 2.415 
2.332 114278.320 0.000 0.000 0.000 2.426 
2.342 113399.410 0.000 0.000 0.000 2.436 
2.352 113597.665 0.000 0.000 0.000 2.446 
2.362 116415.949 0.000 0.000 0.000 2.457 
2.372 116011.640 0.000 0.000 0.000 2.467 
2.382 115637.842 0.000 0.000 0.000 2.478 
2.392 115557.160 0.000 0.000 0.000 2.488 
2.402 116425.645 0.000 0.000 0.000 2.498 
2.412 117512.082 0.000 0.000 0.000 2.509 
2.422 118012.800 0.000 0.000 0.000 2.519 
2.432 118240.653 0.000 0.000 0.000 2.530 
2.442 118546.011 0.000 0.000 0.000 2.540 
2.452 120721.512 0.000 0.000 0.000 2.551 
2.462 119839.153 0.000 0.000 0.000 2.561 
2.472 120927.983 0.000 0.000 0.000 2.571 
2.482 122514.400 0.000 0.000 0.000 2.582 
2.492 120140.625 0.000 0.000 0.000 2.592 
2.503 121995.519 0.000 0.000 0.000 2.603 
2.513 122621.416 0.000 0.000 0.000 2.613 
2.523 123019.405 0.000 0.000 0.000 2.623 
2.533 124846.113 0.000 0.000 0.000 2.634 
2.543 122318.798 0.000 0.000 0.000 2.644 
2.553 124221.823 0.000 0.000 0.000 2.655 
2.563 124817.127 0.000 0.000 0.000 2.665 
2.573 125228.765 0.000 0.000 0.000 2.675 
2.583 126536.068 0.000 0.000 0.000 2.686 
2.593 126770.756 0.000 0.000 0.000 2.696 
2.603 127401.856 0.000 0.000 0.000 2.707 
2.613 127509.331 0.000 0.000 0.000 2.717 
2.623 128389.411 0.000 0.000 0.000 2.728 
2.633 128100.354 0.000 0.000 0.000 2.738 
2.643 129190.203 0.000 0.000 0.000 2.748 
2.653 129262.200 0.000 0.000 0.000 2.759 
2.663 129370.544 0.000 0.000 0.000 2.769 
2.673 130069.523 0.000 0.000 0.000 2.780 
2.683 129752.544 0.000 0.000 0.000 2.790 
2.693 132788.767 0.000 0.000 0.000 2.800 
2.703 133140.230 0.000 0.000 0.000 2.811 
2.713 132571.264 0.000 0.000 0.000 2.821 
2.723 133098.317 0.000 0.000 0.000 2.832 
2.733 133336.512 0.000 0.000 0.000 2.842 
2.743 132546.979 0.000 0.000 0.000 2.852 
2.753 132870.761 0.000 0.000 0.000 2.863 
2.763 134421.839 0.000 0.000 0.000 2.873 
2.773 137021.404 0.000 0.000 0.000 2.884 
2.783 136077.232 0.000 0.000 0.000 2.894 
2.793 136877.697 0.000 0.000 0.000 2.905 
2.803 136331.531 0.000 0.000 0.000 2.915 
2.813 136014.905 0.000 0.000 0.000 2.925 
2.823 137971.693 0.000 0.000 0.000 2.936 
2.833 137538.416 0.000 0.000 0.000 2.946 
2.843 137192.134 0.000 0.000 0.000 2.957 
2.853 139480.877 0.000 0.000 0.000 2.967 
2.863 139765.954 0.000 0.000 0.000 2.977 
2.873 139325.160 0.000 0.000 0.000 2.988 
2.883 141552.371 0.000 0.000 0.000 2.998 
2.893 141933.584 0.000 0.000 0.000 3.009 
2.903 141526.485 0.000 0.000 0.000 3.019 
2.913 141115.418 0.000 0.000 0.000 3.029 
2.923 142682.118 0.000 0.000 0.000 3.040 
2.933 142978.550 0.000 0.000 0.000 3.050 
2.943 143466.752 0.000 0.000 0.000 3.061 
2.953 144126.251 0.000 0.000 0.000 3.071 
2.963 144596.620 0.000 0.000 0.000 3.081 
2.973 145147.165 0.000 0.000 0.000 3.092 
2.983 144987.917 0.000 0.000 0.000 3.102 
2.993 145722.704 0.000 0.000 0.000 3.113 
3.003 147931.294 0.000 0.000 0.000 3.123 
3.013 145163.618 0.000 0.000 0.000 3.134 
3.023 146274.640 0.000 0.000 0.000 3.144 
3.033 143501.539 0.000 0.000 0.000 3.154 
3.043 144503.690 0.000 0.000 0.000 3.165 
3.053 145290.973 0.000 0.000 0.000 3.175 
3.063 145530.358 0.000 0.000 0.000 3.186 
3.073 145136.265 0.000 0.000 0.000 3.196 
3.083 144644.573 0.000 0.000 0.000 3.206 
3.093 144656.072 0.000 0.000 0.000 3.217 
3.103 145166.490 0.000 0.000 0.000 3.227 
3.113 144947.145 0.000 0.000 0.000 3.238 
3.123 144318.536 0.000 0.000 0.000 3.248 
3.133 144737.069 0.000 0.000 0.000 3.258 
3.143 143644.068 0.000 0.000 0.000 3.269 
3.153 143154.516 0.000 0.000 0.000 3.279 
3.163 144179.133 0.000 0.000 0.000 3.290 
3.173 143625.528 0.000 0.000 0.000 3.300 
3.183 142598.526 0.000 0.000 0.000 3.311 
3.193 142683.306 0.000 0.000 0.000 3.321 
3.203 143286.449 0.000 0.000 0.000 3.331 
3.213 142832.037 0.000 0.000 0.000 3.342 
3.223 142673.289 0.000 0.000 0.000 3.352 
3.233 142657.955 0.000 0.000 0.000 3.363 
3.243 143020.711 0.000 0.000 0.000 3.373 
3.253 142931.109 0.000 0.000 0.000 3.383 
3.263 143285.496 0.000 0.000 0.000 3.394 
3.273 142625.860 0.000 0.000 0.000 3.404 
3.283 143281.698 0.000 0.000 0.000 3.415 
3.293 142530.295 0.000 0.000 0.000 3.425 
3.303 142128.296 0.000 0.000 0.000 3.435 
3.313 141673.981 0.000 0.000 0.000 3.446 
3.323 141983.312 0.000 0.000 0.000 3.456 
3.333 140948.040 0.000 0.000 0.000 3.467 
3.343 143236.897 0.000 0.000 0.000 3.477 
3.353 142057.409 0.000 0.000 0.000 3.487 
3.363 142801.481 0.000 0.000 0.000 3.498 
3.373 142423.039 0.000 0.000 0.000 3.508 
3.383 142200.622 0.000 0.000 0.000 3.519 
3.393 141475.066 0.000 0.000 0.000 3.529 
3.403 143314.607 0.000 0.000 0.000 3.540 
3.413 141121.393 0.000 0.000 0.000 3.550 
3.423 142074.542 0.000 0.000 0.000 3.560 
3.433 141223.673 0.000 0.000 0.000 3.571 
3.443 142979.108 0.000 0.000 0.000 3.581 
3.453 141590.620 0.000 0.000 0.000 3.592 
3.463 143435.760 0.000 0.000 0.000 3.602 
3.473 142345.498 0.000 0.000 0.000 3.612 
3.483 143493.186 0.000 0.000 0.000 3.623 
3.493 142768.628 0.000 0.000 0.000 3.633 
3.504 141811.728 0.000 0.000 0.000 3.644 
3.514 142876.061 0.000 0.000 0.000 3.654 
3.524 142502.165 0.000 0.000 0.000 3.664 
3.534 141843.900 0.000 0.000 0.000 3.675 
3.544 141754.247 0.000 0.000 0.000 3.685 
3.554 142957.218 0.000 0.000 0.000 3.696 
3.564 142045.542 0.000 0.000 0.000 3.706 
3.574 143104.973 0.000 0.000 0.000 3.717 
3.584 142629.259 0.000 0.000 0.000 3.727 
3.594 141863.969 0.000 0.000 0.000 3.737 
3.604 142865.026 0.000 0.000 0.000 3.748 
3.614 143201.706 0.000 0.000 0.000 3.758 
3.624 142650.347 0.000 0.000 0.000 3.769 
3.634 142455.832 0.000 0.000 0.000 3.779 
3.644 142671.553 0.000 0.000 0.000 3.789 
3.654 142903.275 0.000 0.000 0.000 3.800 
3.664 142481.955 0.000 0.000 0.000 3.810 
3.674 142439.886 0.000 0.000 0.000 3.821 
3.684 141466.049 0.000 0.000 0.000 3.831 
3.694 141720.877 0.000 0.000 0.000 3.841 
3.704 143856.633 0.000 0.000 0.000 3.852 
3.714 143878.019 0.000 0.000 0.000 3.862 
3.724 142205.705 0.000 0.000 0.000 3.873 
3.734 143077.775 0.000 0.000 0.000 3.883 
3.744 143299.499 0.000 0.000 0.000 3.893 
3.754 142834.145 0.000 0.000 0.000 3.904 
3.764 142368.086 0.000 0.000 0.000 3.914 
3.774 141342.517 0.000 0.000 0.000 3.925 
3.784 143241.566 0.000 0.000 0.000 3.935 
3.794 142469.865 0.000 0.000 0.000 3.946 
3.804 142985.880 0.000 0.000 0.000 3.956 
3.814 143092.981 0.000 0.000 0.000 3.966 
3.824 143174.681 0.000 0.000 0.000 3.977 
3.834 143214.403 0.000 0.000 0.000 3.987 
3.844 143775.481 0.000 0.000 0.000 3.998 
3.854 142720.406 0.000 0.000 0.000 4.008 
3.864 141223.827 0.000 0.000 0.000 4.018 
3.874 143024.813 0.000 0.000 0.000 4.029 
3.884 141786.673 0.000 0.000 0.000 4.039 
3.894 141669.764 0.000 0.000 0.000 4.050 
3.904 143720.631 0.000 0.000 0.000 4.060 
3.914 143100.500 0.000 0.000 0.000 4.070 
3.924 143066.881 0.000 0.000 0.000 4.081 
3.934 142396.478 0.000 0.000 0.000 4.091 
3.944 142428.138 0.000 0.000 0.000 4.102 
3.954 143023.682 0.000 0.000 0.000 4.112 
3.964 142976.383 0.000 0.000 0.000 4.123 
3.974 141332.750 0.000 0.000 0.000 4.133 
3.984 142015.605 0.000 0.000 0.000 4.143 
3.994 141617.923 0.000 0.000 0.000 4.154 
4.004 142516.300 0.000 0.000 0.000 4.164 
4.014 142536.477 0.000 0.000 0.000 4.175 
4.024 142262.338 0.000 0.000 0.000 4.185 
4.034 142727.133 0.000 0.000 0.000 4.195 
4.044 142753.772 0.000 0.000 0.000 4.206 
4.054 143978.112 0.000 0.000 0.000 4.216 
4.064 142179.929 0.000 0.000 0.000 4.227 
4.074 142838.511 0.000 0.000 0.000 4.237 
4.084 142989.395 0.000 0.000 0.000 4.247 
4.094 141163.186 0.000 0.000 0.000 4.258 
4.104 142900.081 0.000 0.000 0.000 4.268 
4.114 143424.048 0.000 0.000 0.000 4.279 
4.124 142824.886 0.000 0.000 0.000 4.289 
4.134 141379.494 0.000 0.000 0.000 4.299 
4.144 143646.212 0.000 0.000 0.000 4.310 
4.154 142345.759 0.000 0.000 0.000 4.320 
4.164 142026.071 0.000 0.000 0.000 4.331 
4.174 142432.347 0.000 0.000 0.000 4.341 
4.184 141947.857 0.000 0.000 0.000 4.352 
4.194 140680.491 0.000 0.000 0.000 4.362 
4.204 144152.435 0.000 0.000 0.000 4.372 
4.214 142545.307 0.000 0.000 0.000 4.383 
4.224 142940.107 0.000 0.000 0.000 4.393 
4.234 141927.974 0.000 0.000 0.000 4.404 
4.244 142477.009 0.000 0.000 0.000 4.414 
4.254 142617.583 0.000 0.000 0.000 4.424 
4.264 141207.062 0.000 0.000 0.000 4.435 
4.274 142931.828 0.000 0.000 0.000 4.445 
4.284 143564.705 0.000 0.000 0.000 4.456 
4.294 142847.398 0.000 0.000 0.000 4.466 
4.304 142885.038 0.000 0.000 0.000 4.476 
4.314 142166.090 0.000 0.000 0.000 4.487 
4.324 142640.268 0.000 0.000 0.000 4.497 
4.334 144162.237 0.000 0.000 0.000 4.508 
4.344 142346.749 0.000 0.000 0.000 4.518 
4.354 143082.199 0.000 0.000 0.000 4.529 
4.364 143064.651 0.000 0.000 0.000 4.539 
4.374 140136.279 0.000 0.000 0.000 4.549 
4.384 142525.605 0.000 0.000 0.000 4.560 
4.394 142181.940 0.000 0.000 0.000 4.570 
4.404 142119.881 0.000 0.000 0.000 4.581 
4.414 143810.207 0.000 0.000 0.000 4.591 
4.424 141495.668 0.000 0.000 0.000 4.601 
4.434 142227.195 0.000 0.000 0.000 4.612 
4.444 143719.865 0.000 0.000 0.000 4.622 
4.454 143275.405 0.000 0.000 0.000 4.633 
4.464 142336.158 0.000 0.000 0.000 4.643 
4.474 142466.713 0.000 0.000 0.000 4.653 
4.484 143539.813 0.000 0.000 0.000 4.664 
4.494 142866.777 0.000 0.000 0.000 4.674 
4.505 142635.452 0.000 0.000 0.000 4.685 
4.515 142070.572 0.000 0.000 0.000 4.695 
4.525 142562.691 0.000 0.000 0.000 4.706 
4.535 141732.288 0.000 0.000 0.000 4.716 
4.545 142954.361 0.000 0.000 0.000 4.726 
4.555 142502.808 0.000 0.000 0.000 4.737 
4.565 144155.871 0.000 0.000 0.000 4.747 
4.575 140730.157 0.000 0.000 0.000 4.758 
4.585 142756.875 0.000 0.000 0.000 4.768 
4.595 142849.083 0.000 0.000 0.000 4.778 
4.605 141664.179 0.000 0.000 0.000 4.789 
4.615 141370.047 0.000 0.000 0.000 4.799 
4.625 143592.913 0.000 0.000 0.000 4.810 
4.635 142814.098 0.000 0.000 0.000 4.820 
4.645 142208.941 0.000 0.000 0.000 4.830 
4.655 145197.516 0.000 0.000 0.000 4.841 
4.665 141838.118 0.000 0.000 0.000 4.851 
4.675 141972.344 0.000 0.000 0.000 4.862 
4.685 144409.175 0.000 0.000 0.000 4.872 
4.695 144035.812 0.000 0.000 0.000 4.882 
4.705 142805.672 0.000 0.000 0.000 4.893 
4.715 142107.466 0.000 0.000 0.000 4.903 
4.725 142672.805 0.000 0.000 0.000 4.914 
4.735 142148.395 0.000 0.000 0.000 4.924 
4.745 143164.809 0.000 0.000 0.000 4.935 
4.755 142971.044 0.000 0.000 0.000 4.945 
4.765 142259.328 0.000 0.000 0.000 4.955 
4.775 142709.565 0.000 0.000 0.000 4.966 
4.785 143672.677 0.000 0.000 0.000 4.976 
4.795 142593.495 0.000 0.000 0.000 4.987 
4.805 142319.620 0.000 0.000 0.000 4.997 
4.815 142114.772 0.000 0.000 0.000 5.007 
4.825 143463.890 0.000 0.000 0.000 5.018 
4.835 142013.892 0.000 0.000 0.000 5.028 
4.845 142384.888 0.000 0.000 0.000 5.039 
4.855 143543.651 0.000 0.000 0.000 5.049 
4.865 142799.892 0.000 0.000 0.000 5.059 
4.875 141650.779 0.000 0.000 0.000 5.070 
4.885 142716.263 0.000 0.000 0.000 5.080 
4.895 143089.797 0.000 0.000 0.000 5.091 
4.905 141477.283 0.000 0.000 0.000 5.101 
4.915 141902.043 0.000 0.000 0.000 5.112 
4.925 143536.081 0.000 0.000 0.000 5.122 
4.935 141769.171 0.000 0.000 0.000 5.132 
4.945 141914.484 0.000 0.000 0.000 5.143 
4.955 142706.905 0.000 0.000 0.000 5.153 
4.965 141884.913 0.000 0.000 0.000 5.164 
4.975 143724.012 0.000 0.000 0.000 5.174 
4.985 143428.446 0.000 0.000 0.000 5.184 
4.995 142807.574 0.000 0.000 0.000 5.195 
5.005 143043.242 0.000 0.000 0.000 5.205 
5.015 142602.965 0.000 0.000 0.000 5.216 
5.025 143099.974 0.000 0.000 0.000 5.226 
5.035 142126.697 0.000 0.000 0.000 5.236 
5.045 142189.055 0.000 0.000 0.000 5.247 
5.055 142623.430 0.000 0.000 0.000 5.257 
5.065 143107.040 0.000 0.000 0.000 5.268 
5.075 142704.185 0.000 0.000 0.000 5.278 
5.085 142326.832 0.000 0.000 0.000 5.288 
5.095 143513.441 0.000 0.000 0.000 5.299 
5.105 142010.969 0.000 0.000 0.000 5.309 
5.115 141378.951 0.000 0.000 0.000 5.320 
5.125 142737.744 0.000 0.000 0.000 5.330 
5.135 142181.572 0.000 0.000 0.000 5.341 
5.145 142525.449 0.000 0.000 0.000 5.351 
5.155 144157.837 0.000 0.000 0.000 5.361 
5.165 141963.002 0.000 0.000 0.000 5.372 
5.175 142098.121 0.000 0.000 0.000 5.382 
5.185 141680.417 0.000 0.000 0.000 5.393 
5.195 141830.243 0.000 0.000 0.000 5.403 
5.205 142923.605 0.000 0.000 0.000 5.413 
5.215 142006.641 0.000 0.000 0.000 5.424 
5.225 144064.703 0.000 0.000 0.000 5.434 
5.235 143774.918 0.000 0.000 0.000 5.445 
5.245 143016.233 0.000 0.000 0.000 5.455 
5.255 143698.995 0.000 0.000 0.000 5.465 
5.265 142078.474 0.000 0.000 0.000 5.476 
5.275 142376.186 0.000 0.000 0.000 5.486 
5.285 142606.077 0.000 0.000 0.000 5.497 
5.295 142361.554 0.000 0.000 0.000 5.507 
5.305 141947.884 0.000 0.000 0.000 5.518 
5.315 142280.788 0.000 0.000 0.000 5.528 
5.325 143053.125 0.000 0.000 0.000 5.538 
5.335 143790.284 0.000 0.000 0.000 5.549 
5.345 143637.534 0.000 0.000 0.000 5.559 
5.355 143359.469 0.000 0.000 0.000 5.570 
5.365 141891.173 0.000 0.000 0.000 5.580 
5.375 142176.244 0.000 0.000 0.000 5.590 
5.385 142546.233 0.000 0.000 0.000 5.601 
5.395 142505.545 0.000 0.000 0.000 5.611 
5.405 141449.167 0.000 0.000 0.000 5.622 
5.415 143139.742 0.000 0.000 0.000 5.632 
5.425 141834.452 0.000 0.000 0.000 5.642 
5.435 143312.893 0.000 0.000 0.000 5.653 
5.445 143025.049 0.000 0.000 0.000 5.663 
5.455 143372.446 0.000 0.000 0.000 5.674 
5.465 142563.216 0.000 0.000 0.000 5.684 
5.475 142832.840 0.000 0.000 0.000 5.694 
5.485 142820.154 0.000 0.000 0.000 5.705 
5.495 140286.385 0.000 0.000 0.000 5.715 
5.506 142464.574 0.000 0.000 0.000 5.726 
5.516 141413.912 0.000 0.000 0.000 5.736 
5.526 142225.516 0.000 0.000 0.000 5.747 
5.536 142882.904 0.000 0.000 0.000 5.757 
5.546 142176.261 0.000 0.000 0.000 5.767 
5.556 142237.046 0.000 0.000 0.000 5.778 
5.566 142592.310 0.000 0.000 0.000 5.788 
5.576 142603.593 0.000 0.000 0.000 5.799 
5.586 142144.662 0.000 0.000 0.000 5.809 
5.596 142082.963 0.000 0.000 0.000 5.819 
5.606 141602.318 0.000 0.000 0.000 5.830 
5.616 142126.158 0.000 0.000 0.000 5.840 
5.626 143782.063 0.000 0.000 0.000 5.851 
5.636 143609.096 0.000 0.000 0.000 5.861 
5.646 142373.586 0.000 0.000 0.000 5.871 
5.656 141683.863 0.000 0.000 0.000 5.882 
5.666 142489.108 0.000 0.000 0.000 5.892 
5.676 142810.532 0.000 0.000 0.000 5.903 
5.686 141723.635 0.000 0.000 0.000 5.913 
5.696 142587.547 0.000 0.000 0.000 5.924 
5.706 142524.202 0.000 0.000 0.000 5.934 
5.716 142171.489 0.000 0.000 0.000 5.944 
5.726 141797.201 0.000 0.000 0.000 5.955 
5.736 141558.715 0.000 0.000 0.000 5.965 
5.746 142022.380 0.000 0.000 0.000 5.976 
5.756 144392.480 0.000 0.000 0.000 5.986 
5.766 143405.813 0.000 0.000 0.000 5.996 
5.776 142220.604 0.000 0.000 0.000 6.007 
5.786 142206.561 0.000 0.000 0.000 6.017 
5.796 140853.937 0.000 0.000 0.000 6.028 
5.806 142668.431 0.000 0.000 0.000 6.038 
5.816 142959.913 0.000 0.000 0.000 6.048 
5.826 142030.400 0.000 0.000 0.000 6.059 
5.836 142955.883 0.000 0.000 0.000 6.069 
5.846 141367.498 0.000 0.000 0.000 6.080 
5.856 142260.717 0.000 0.000 0.000 6.090 
5.866 142623.407 0.000 0.000 0.000 6.101 
5.876 142784.355 0.000 0.000 0.000 6.111 
5.886 141727.292 0.000 0.000 0.000 6.121 
5.896 143177.556 0.000 0.000 0.000 6.132 
5.906 143144.149 0.000 0.000 0.000 6.142 
5.916 143047.068 0.000 0.000 0.000 6.153 
5.926 142042.530 0.000 0.000 0.000 6.163 
5.936 141730.989 0.000 0.000 0.000 6.173 
5.946 141496.961 0.000 0.000 0.000 6.184 
5.956 140692.845 0.000 0.000 0.000 6.194 
5.966 143794.086 0.000 0.000 0.000 6.205 
5.976 144437.662 0.000 0.000 0.000 6.215 
5.986 141926.848 0.000 0.000 0.000 6.225 
5.996 143708.084 0.000 0.000 0.000 6.236 
6.006 141658.198 0.000 0.000 0.000 6.246 
6.016 143727.666 0.000 0.000 0.000 6.257 
6.026 142579.494 0.000 0.000 0.000 6.267 
6.036 142544.404 0.000 0.000 0.000 6.277 
6.046 142062.471 0.000 0.000 0.000 6.288 
6.056 143098.184 0.000 0.000 0.000 6.298 
6.066 142112.662 0.000 0.000 0.000 6.309 
6.076 142351.499 0.000 0.000 0.000 6.319 
6.086 142113.854 0.000 0.000 0.000 6.330 
6.096 141121.424 0.000 0.000 0.000 6.340 
6.106 142816.731 0.000 0.000 0.000 6.350 
6.116 142228.514 0.000 0.000 0.000 6.361 
6.126 142663.618 0.000 0.000 0.000 6.371 
6.136 142488.064 0.000 0.000 0.000 6.382 
6.146 143622.413 0.000 0.000 0.000 6.392 
6.156 141079.894 0.000 0.000 0.000 6.402 
6.166 143500.217 0.000 0.000 0.000 6.413 
6.176 142167.263 0.000 0.000 0.000 6.423 
6.186 140837.107 0.000 0.000 0.000 6.434 
6.196 142258.808 0.000 0.000 0.000 6.444 
6.206 142057.649 0.000 0.000 0.000 6.454 
6.216 143354.664 0.000 0.000 0.000 6.465 
6.226 142812.955 0.000 0.000 0.000 6.475 
6.236 141980.013 0.000 0.000 0.000 6.486 
6.246 141021.458 0.000 0.000 0.000 6.496 
6.256 141920.799 0.000 0.000 0.000 6.507 
6.266 143452.175 0.000 0.000 0.000 6.517 
6.276 142173.818 0.000 0.000 0.000 6.527 
6.286 143228.347 0.000 0.000 0.000 6.538 
6.296 142187.612 0.000 0.000 0.000 6.548 
6.306 142337.935 0.000 0.000 0.000 6.559 
6.316 143223.428 0.000 0.000 0.000 6.569 
6.326 142211.207 0.000 0.000 0.000 6.579 
6.336 142428.242 0.000 0.000 0.000 6.590 
6.346 143059.400 0.000 0.000 0.000 6.600 
6.356 141320.587 0.000 0.000 0.000 6.611 
6.366 142094.014 0.000 0.000 0.000 6.621 
6.376 142811.598 0.000 0.000 0.000 6.631 
6.386 141462.385 0.000 0.000 0.000 6.642 
6.396 141964.612 0.000 0.000 0.000 6.652 
6.406 140736.047 0.000 0.000 0.000 6.663 
6.416 142641.045 0.000 0.000 0.000 6.673 
6.426 142762.492 0.000 0.000 0.000 6.683 
6.436 143319.358 0.000 0.000 0.000 6.694 
6.446 143097.079 0.000 0.000 0.000 6.704 
6.456 142856.524 0.000 0.000 0.000 6.715 
6.466 141948.865 0.000 0.000 0.000 6.725 
6.476 142385.512 0.000 0.000 0.000 6.736 
6.486 142641.032 0.000 0.000 0.000 6.746 
6.496 141354.427 0.000 0.000 0.000 6.756 
6.507 143141.081 0.000 0.000 0.000 6.767 
6.517 143082.350 0.000 0.000 0.000 6.777 
6.527 142110.468 0.000 0.000 0.000 6.788 
6.537 141901.603 0.000 0.000 0.000 6.798 
6.547 140741.518 0.000 0.000 0.000 6.808 
6.557 141315.422 0.000 0.000 0.000 6.819 
6.567 143709.913 0.000 0.000 0.000 6.829 
6.577 142878.731 0.000 0.000 0.000 6.840 
6.587 141562.278 0.000 0.000 0.000 6.850 
6.597 142803.112 0.000 0.000 0.000 6.860 
6.607 142139.897 0.000 0.000 0.000 6.871 
6.617 142750.945 0.000 0.000 0.000 6.881 
6.627 142513.321 0.000 0.000 0.000 6.892 
6.637 140954.264 0.000 0.000 0.000 6.902 
6.647 141405.464 0.000 0.000 0.000 6.913 
6.657 142669.587 0.000 0.000 0.000 6.923 
6.667 141964.757 0.000 0.000 0.000 6.933 
6.677 141592.044 0.000 0.000 0.000 6.944 
6.687 142848.084 0.000 0.000 0.000 6.954 
6.697 142973.042 0.000 0.000 0.000 6.965 
6.707 140801.028 0.000 0.000 0.000 6.975 
6.717 142452.518 0.000 0.000 0.000 6.985 
6.727 141948.384 0.000 0.000 0.000 6.996 
6.737 141474.067 0.000 0.000 0.000 7.006 
6.747 143249.751 0.000 0.000 0.000 7.017 
6.757 142388.542 0.000 0.000 0.000 7.027 
6.767 142055.643 0.000 0.000 0.000 7.037 
6.777 141923.253 0.000 0.000 0.000 7.048 
6.787 143582.211 0.000 0.000 0.000 7.058 
6.797 141969.516 0.000 0.000 0.000 7.069 
6.807 141913.069 0.000 0.000 0.000 7.079 
6.817 142195.846 0.000 0.000 0.000 7.089 
6.827 142229.154 0.000 0.000 0.000 7.100 
6.837 141997.156 0.000 0.000 0.000 7.110 
6.847 142800.485 0.000 0.000 0.000 7.121 
6.857 142835.810 0.000 0.000 0.000 7.131 
6.867 141382.116 0.000 0.000 0.000 7.142 
6.877 141474.093 0.000 0.000 0.000 7.152 
6.887 142673.079 0.000 0.000 0.000 7.162 
6.897 144357.141 0.000 0.000 0.000 7.173 
6.907 141799.690 0.000 0.000 0.000 7.183 
6.917 142281.388 0.000 0.000 0.000 7.194 
6.927 143112.745 0.000 0.000 0.000 7.204 
6.937 141743.763 0.000 0.000 0.000 7.214 
6.947 141789.362 0.000 0.000 0.000 7.225 
6.957 142693.386 0.000 0.000 0.000 7.235 
6.967 142252.316 0.000 0.000 0.000 7.246 
6.977 142034.721 0.000 0.000 0.000 7.256 
6.987 143697.866 0.000 0.000 0.000 7.266 
6.997 141763.960 0.000 0.000 0.000 7.277 
7.007 141543.000 0.000 0.000 0.000 7.287 
7.017 142340.020 0.000 0.000 0.000 7.298 
7.027 141318.146 0.000 0.000 0.000 7.308 
7.037 141287.735 0.000 0.000 0.000 7.319 
7.047 141839.565 0.000 0.000 0.000 7.329 
7.057 141408.300 0.000 0.000 0.000 7.339 
7.067 142173.131 0.000 0.000 0.000 7.350 
7.077 142212.791 0.000 0.000 0.000 7.360 
7.087 141894.980 0.000 0.000 0.000 7.371 
7.097 141862.233 0.000 0.000 0.000 7.381 
7.107 142804.320 0.000 0.000 0.000 7.391 
7.117 141497.587 0.000 0.000 0.000 7.402 
7.127 141957.179 0.000 0.000 0.000 7.412 
7.137 141986.186 0.000 0.000 0.000 7.423 
7.147 141957.236 0.000 0.000 0.000 7.433 
7.157 140916.612 0.000 0.000 0.000 7.443 
7.167 141825.044 0.000 0.000 0.000 7.454 
7.177 143084.894 0.000 0.000 0.000 7.464 
7.187 141316.271 0.000 0.000 0.000 7.475 
7.197 141514.971 0.000 0.000 0.000 7.485 
7.207 142222.909 0.000 0.000 0.000 7.495 
7.217 142942.232 0.000 0.000 0.000 7.506 
7.227 141004.669 0.000 0.000 0.000 7.516 
7.237 141284.678 0.000 0.000 0.000 7.527 
7.247 141111.123 0.000 0.000 0.000 7.537 
7.257 142808.079 0.000 0.000 0.000 7.548 
7.267 143141.171 0.000 0.000 0.000 7.558 
7.277 141605.313 0.000 0.000 0.000 7.568 
7.287 141455.393 0.000 0.000 0.000 7.579 
7.297 141770.255 0.000 0.000 0.000 7.589 
7.307 141300.155 0.000 0.000 0.000 7.600 
7.317 142547.968 0.000 0.000 0.000 7.610 
7.327 141869.069 0.000 0.000 0.000 7.620 
7.337 140996.047 0.000 0.000 0.000 7.631 
7.347 140808.669 0.000 0.000 0.000 7.641 
7.357 142099.766 0.000 0.000 0.000 7.652 
7.367 141648.285 0.000 0.000 0.000 7.662 
7.377 140644.154 0.000 0.000 0.000 7.672 
7.387 141724.673 0.000 0.000 0.000 7.683 
7.397 140130.252 0.000 0.000 0.000 7.693 
7.407 140902.431 0.000 0.000 0.000 7.704 
7.417 141831.727 0.000 0.000 0.000 7.714 
7.427 142067.892 0.000 0.000 0.000 7.725 
7.437 140843.102 0.000 0.000 0.000 7.735 
7.447 141205.808 0.000 0.000 0.000 7.745 
7.457 141534.942 0.000 0.000 0.000 7.756 
7.467 141801.466 0.000 0.000 0.000 7.766 
7.477 142146.490 0.000 0.000 0.000 7.777 
7.487 142721.174 0.000 0.000 0.000 7.787 
7.497 140146.923 0.000 0.000 0.000 7.797 
7.508 142541.683 0.000 0.000 0.000 7.808 
7.518 141658.584 0.000 0.000 0.000 7.818 
7.528 141791.008 0.000 0.000 0.000 7.829 
7.538 142086.271 0.000 0.000 0.000 7.839 
7.548 140558.883 0.000 0.000 0.000 7.849 
7.558 141861.419 0.000 0.000 0.000 7.860 
7.568 141307.236 0.000 0.000 0.000 7.870 
7.578 142569.450 0.000 0.000 0.000 7.881 
7.588 140443.857 0.000 0.000 0.000 7.891 
7.598 141470.421 0.000 0.000 0.000 7.902 
7.608 143301.603 0.000 0.000 0.000 7.912 
7.618 141557.457 0.000 0.000 0.000 7.922 
7.628 141405.816 0.000 0.000 0.000 7.933 
7.638 142844.950 0.000 0.000 0.000 7.943 
7.648 142321.889 0.000 0.000 0.000 7.954 
7.658 142458.576 0.000 0.000 0.000 7.964 
7.668 141720.854 0.000 0.000 0.000 7.974 
7.678 140907.322 0.000 0.000 0.000 7.985 
7.688 142143.840 0.000 0.000 0.000 7.995 
7.698 142377.241 0.000 0.000 0.000 8.006 
7.708 141568.494 0.000 0.000 0.000 8.016 
7.718 141158.130 0.000 0.000 0.000 8.026 
7.728 142244.519 0.000 0.000 0.000 8.037 
7.738 142748.565 0.000 0.000 0.000 8.047 
7.748 141564.601 0.000 0.000 0.000 8.058 
7.758 142354.315 0.000 0.000 0.000 8.068 
7.768 141262.029 0.000 0.000 0.000 8.078 
7.778 140801.593 0.000 0.000 0.000 8.089 
7.788 141509.382 0.000 0.000 0.000 8.099 
7.798 142201.867 0.000 0.000 0.000 8.110 
7.808 141595.738 0.000 0.000 0.000 8.120 
7.818 142577.165 0.000 0.000 0.000 8.131 
7.828 142089.675 0.000 0.000 0.000 8.141 
7.838 141084.580 0.000 0.000 0.000 8.151 
7.848 140923.565 0.000 0.000 0.000 8.162 
7.858 141500.836 0.000 0.000 0.000 8.172 
7.868 140962.849 0.000 0.000 0.000 8.183 
7.878 142423.734 0.000 0.000 0.000 8.193 
7.888 142135.482 0.000 0.000 0.000 8.203 
7.898 142735.721 0.000 0.000 0.000 8.214 
7.908 142719.999 0.000 0.000 0.000 8.224 
7.918 141615.967 0.000 0.000 0.000 8.235 
7.928 141366.555 0.000 0.000 0.000 8.245 
7.938 141882.666 0.000 0.000 0.000 8.255 
7.948 141480.070 0.000 0.000 0.000 8.266 
7.958 140064.880 0.000 0.000 0.000 8.276 
7.968 141785.387 0.000 0.000 0.000 8.287 
7.978 141457.258 0.000 0.000 0.000 8.297 
7.988 140715.224 0.000 0.000 0.000 8.308 
7.998 140594.553 0.000 0.000 0.000 8.318 
8.008 141301.666 0.000 0.000 0.000 8.328 
8.018 141221.182 0.000 0.000 0.000 8.339 
8.028 141236.004 0.000 0.000 0.000 8.349 
8.038 141939.665 0.000 0.000 0.000 8.360 
8.048 141848.468 0.000 0.000 0.000 8.370 
8.058 141439.645 0.000 0.000 0.000 8.380 
8.068 141494.441 0.000 0.000 0.000 8.391 
8.078 140927.210 0.000 0.000 0.000 8.401 
8.088 139633.881 0.000 0.000 0.000 8.412 
8.098 141782.973 0.000 0.000 0.000 8.422 
8.108 141423.376 0.000 0.000 0.000 8.432 
8.118 140633.267 0.000 0.000 0.000 8.443 
8.128 141407.744 0.000 0.000 0.000 8.453 
8.138 139843.489 0.000 0.000 0.000 8.464 
8.148 142835.310 0.000 0.000 0.000 8.474 
8.158 142228.629 0.000 0.000 0.000 8.484 
8.168 142337.785 0.000 0.000 0.000 8.495 
8.178 141211.866 0.000 0.000 0.000 8.505 
8.188 139955.876 0.000 0.000 0.000 8.516 
8.198 141982.798 0.000 0.000 0.000 8.526 
8.208 141994.882 0.000 0.000 0.000 8.537 
8.218 142472.176 0.000 0.000 0.000 8.547 
8.228 139817.362 0.000 0.000 0.000 8.557 
8.238 142388.707 0.000 0.000 0.000 8.568 
8.248 140987.042 0.000 0.000 0.000 8.578 
8.258 142160.174 0.000 0.000 0.000 8.589 
8.268 140431.016 0.000 0.000 0.000 8.599 
8.278 140980.448 0.000 0.000 0.000 8.609 
8.288 141007.895 0.000 0.000 0.000 8.620 
8.298 140882.150 0.000 0.000 0.000 8.630 
8.308 141294.575 0.000 0.000 0.000 8.641 
8.318 141132.575 0.000 0.000 0.000 8.651 
8.328 141139.584 0.000 0.000 0.000 8.661 
8.338 141815.411 0.000 0.000 0.000 8.672 
8.348 141217.776 0.000 0.000 0.000 8.682 
8.358 140925.983 0.000 0.000 0.000 8.693 
8.368 142000.815 0.000 0.000 0.000 8.703 
8.378 141034.823 0.000 0.000 0.000 8.714 
8.388 141002.822 0.000 0.000 0.000 8.724 
8.398 141627.291 0.000 0.000 0.000 8.734 
8.408 141178.441 0.000 0.000 0.000 8.745 
8.418 141881.642 0.000 0.000 0.000 8.755 
8.428 139264.838 0.000 0.000 0.000 8.766 
8.438 141739.675 0.000 0.000 0.000 8.776 
8.448 140790.466 0.000 0.000 0.000 8.786 
8.458 142211.435 0.000 0.000 0.000 8.797 
8.468 141780.759 0.000 0.000 0.000 8.807 
8.478 142665.353 0.000 0.000 0.000 8.818 
8.488 140459.373 0.000 0.000 0.000 8.828 
8.498 142553.138 0.000 0.000 0.000 8.838 
8.509 140657.428 0.000 0.000 0.000 8.849 
8.519 140773.862 0.000 0.000 0.000 8.859 
8.529 141086.304 0.000 0.000 0.000 8.870 
8.539 141219.841 0.000 0.000 0.000 8.880 
8.549 140699.883 0.000 0.000 0.000 8.890 
8.559 140266.063 0.000 0.000 0.000 8.901 
8.569 141305.812 0.000 0.000 0.000 8.911 
8.579 141459.903 0.000 0.000 0.000 8.922 
8.589 141388.485 0.000 0.000 0.000 8.932 
8.599 141243.144 0.000 0.000 0.000 8.943 
8.609 140142.037 0.000 0.000 0.000 8.953 
8.619 141700.840 0.000 0.000 0.000 8.963 
8.629 141133.361 0.000 0.000 0.000 8.974 
8.639 141748.648 0.000 0.000 0.000 8.984 
8.649 140945.107 0.000 0.000 0.000 8.995 
8.659 139686.324 0.000 0.000 0.000 9.005 
8.669 140462.639 0.000 0.000 0.000 9.015 
8.679 140930.061 0.000 0.000 0.000 9.026 
8.689 140705.880 0.000 0.000 0.000 9.036 
8.699 140000.398 0.000 0.000 0.000 9.047 
8.709 142185.405 0.000 0.000 0.000 9.057 
8.719 140994.427 0.000 0.000 0.000 9.067 
8.729 141612.427 0.000 0.000 0.000 9.078 
8.739 140269.658 0.000 0.000 0.000 9.088 
8.749 140923.218 0.000 0.000 0.000 9.099 
8.759 141052.729 0.000 0.000 0.000 9.109 
8.769 141438.873 0.000 0.000 0.000 9.120 
8.779 139591.125 0.000 0.000 0.000 9.130 
8.789 140483.967 0.000 0.000 0.000 9.140 
8.799 141708.541 0.000 0.000 0.000 9.151 
8.809 141302.035 0.000 0.000 0.000 9.161 
8.819 139911.879 0.000 0.000 0.000 9.172 
8.829 141385.205 0.000 0.000 0.000 9.182 
8.839 142414.605 0.000 0.000 0.000 9.192 
8.849 141190.459 0.000 0.000 0.000 9.203 
8.859 142792.821 0.000 0.000 0.000 9.213 
8.869 140339.093 0.000 0.000 0.000 9.224 
8.879 141832.451 0.000 0.000 0.000 9.234 
8.889 140404.375 0.000 0.000 0.000 9.244 
8.899 142378.783 0.000 0.000 0.000 9.255 
8.909 140893.447 0.000 0.000 0.000 9.265 
8.919 140614.757 0.000 0.000 0.000 9.276 
8.929 141358.731 0.000 0.000 0.000 9.286 
8.939 140371.058 0.000 0.000 0.000 9.296 
8.949 141067.561 0.000 0.000 0.000 9.307 
8.959 140926.141 0.000 0.000 0.000 9.317 
8.969 140658.625 0.000 0.000 0.000 9.328 
8.979 141868.924 0.000 0.000 0.000 9.338 
8.989 141345.587 0.000 0.000 0.000 9.349 
8.999 141647.382 0.000 0.000 0.000 9.359 
9.009 142169.233 0.000 0.000 0.000 9.369 
9.019 140737.591 0.000 0.000 0.000 9.380 
9.029 140608.045 0.000 0.000 0.000 9.390 
9.039 140767.659 0.000 0.000 0.000 9.401 
9.049 141260.692 0.000 0.000 0.000 9.411 
9.059 141405.188 0.000 0.000 0.000 9.421 
9.069 141877.973 0.000 0.000 0.000 9.432 
9.079 140195.677 0.000 0.000 0.000 9.442 
9.089 140567.611 0.000 0.000 0.000 9.453 
9.099 140459.032 0.000 0.000 0.000 9.463 
9.109 141547.023 0.000 0.000 0.000 9.473 
9.119 141240.870 0.000 0.000 0.000 9.484 
9.129 140520.156 0.000 0.000 0.000 9.494 
9.139 141369.760 0.000 0.000 0.000 9.505 
9.149 142368.421 0.000 0.000 0.000 9.515 
9.159 141724.453 0.000 0.000 0.000 9.526 
9.169 140239.078 0.000 0.000 0.000 9.536 
9.179 141809.706 0.000 0.000 0.000 9.546 
9.189 140193.605 0.000 0.000 0.000 9.557 
9.199 141220.880 0.000 0.000 0.000 9.567 
9.209 140478.964 0.000 0.000 0.000 9.578 
9.219 141071.346 0.000 0.000 0.000 9.588 
9.229 141716.388 0.000 0.000 0.000 9.598 
9.239 140036.947 0.000 0.000 0.000 9.609 
9.249 140529.084 0.000 0.000 0.000 9.619 
9.259 140371.539 0.000 0.000 0.000 9.630 
9.269 139995.989 0.000 0.000 0.000 9.640 
9.279 141395.932 0.000 0.000 0.000 9.650 
9.289 141080.452 0.000 0.000 0.000 9.661 
9.299 141404.025 0.000 0.000 0.000 9.671 
9.309 140763.554 0.000 0.000 0.000 9.682 
9.319 140882.560 0.000 0.000 0.000 9.692 
9.329 140890.132 0.000 0.000 0.000 9.703 
9.339 139870.389 0.000 0.000 0.000 9.713 
9.349 140958.162 0.000 0.000 0.000 9.723 
9.359 141571.681 0.000 0.000 0.000 9.734 
9.369 141658.688 0.000 0.000 0.000 9.744 
9.379 140286.610 0.000 0.000 0.000 9.755 
9.389 139343.824 0.000 0.000 0.000 9.765 
9.399 139104.507 0.000 0.000 0.000 9.775 
9.409 142140.850 0.000 0.000 0.000 9.786 
9.419 139463.575 0.000 0.000 0.000 9.796 
9.429 139440.232 0.000 0.000 0.000 9.807 
9.439 138868.022 0.000 0.000 0.000 9.817 
9.449 141019.572 0.000 0.000 0.000 9.827 
9.459 140160.667 0.000 0.000 0.000 9.838 
9.469 140581.221 0.000 0.000 0.000 9.848 
9.479 141379.388 0.000 0.000 0.000 9.859 
9.489 140030.202 0.000 0.000 0.000 9.869 
9.499 141457.874 0.000 0.000 0.000 9.879 
9.510 139905.727 0.000 0.000 0.000 9.890 
9.520 141238.286 0.000 0.000 0.000 9.900 
9.530 139457.040 0.000 0.000 0.000 9.911 
9.540 139145.967 0.000 0.000 0.000 9.921 
9.550 141078.127 0.000 0.000 0.000 9.932 
9.560 140979.825 0.000 0.000 0.000 9.942 
9.570 139329.791 0.000 0.000 0.000 9.952 
9.580 141153.510 0.000 0.000 0.000 9.963 
9.590 139863.472 0.000 0.000 0.000 9.973 
9.600 141006.927 0.000 0.000 0.000 9.984 
9.610 140975.457 0.000 0.000 0.000 9.994 
9.620 140029.579 0.000 0.000 0.000 10.004 
9.630 138590.708 0.000 0.000 0.000 10.015 
9.640 140511.839 0.000 0.000 0.000 10.025 
9.650 139795.179 0.000 0.000 0.000 10.036 
9.660 140534.513 0.000 0.000 0.000 10.046 
9.670 139554.895 0.000 0.000 0.000 10.056 
9.680 139795.511 0.000 0.000 0.000 10.067 
9.690 140036.805 0.000 0.000 0.000 10.077 
9.700 139425.801 0.000 0.000 0.000 10.088 
9.710 140182.133 0.000 0.000 0.000 10.098 
9.720 140156.646 0.000 0.000 0.000 10.109 
9.730 141554.830 0.000 0.000 0.000 10.119 
9.740 138974.984 0.000 0.000 0.000 10.129 
9.750 141589.295 0.000 0.000 0.000 10.140 
9.760 140322.390 0.000 0.000 0.000 10.150 
9.770 140313.188 0.000 0.000 0.000 10.161 
9.780 141093.217 0.000 0.000 0.000 10.171 
9.790 140637.553 0.000 0.000 0.000 10.181 
9.800 140825.461 0.000 0.000 0.000 10.192 
9.810 140885.229 0.000 0.000 0.000 10.202 
9.820 140448.541 0.000 0.000 0.000 10.213 
9.830 138510.648 0.000 0.000 0.000 10.223 
9.840 140875.678 0.000 0.000 0.000 10.233 
9.850 141351.676 0.000 0.000 0.000 10.244 
9.860 139353.009 0.000 0.000 0.000 10.254 
9.870 140658.849 0.000 0.000 0.000 10.265 
9.880 140614.762 0.000 0.000 0.000 10.275 
9.890 138994.644 0.000 0.000 0.000 10.285 
9.900 139496.126 0.000 0.000 0.000 10.296 
9.910 139857.318 0.000 0.000 0.000 10.306 
9.920 138840.475 0.000 0.000 0.000 10.317 
9.930 139857.759 0.000 0.000 0.000 10.327 
9.940 140492.726 0.000 0.000 0.000 10.338 
9.950 140107.595 0.000 0.000 0.000 10.348 
9.960 139073.035 0.000 0.000 0.000 10.358 
9.970 140472.651 0.000 0.000 0.000 10.369 
9.980 140111.526 0.000 0.000 0.000 10.379 
9.990 140179.043 0.000 0.000 0.000 10.390 
10.000 140094.389 0.000 0.000 0.000 10.400 
"Specimen",1
"Specimen name:",""
"Width:",6.350000,"mm"
"Thickness:",1.524000,"mm"
"Length:",12.000000,"mm"
"Diameter:",5.000000,"um"
"Inner diameter:",0.500000,"mm"
"Outer diameter:",1.000000,"mm"
"Wall thickness:",0.500000,"mm"
"Area:",19.634954,"um*um"
"Linear density:",1.000000,"den"
"Sled weight:",9.806650,"N"
"Loading span:",0.000000,"mm"
"Support span:",1.000000,"mm"
"Span ratio:","2"
"Fixture type:","3-point"
"Comment:",""
"Included"
"Time sec","Stress Pa","Cycle Count","Total Cycle Count","Repetitions Count","Strain [Exten.] %"
0.000 398.125 0.000 0.000 0.000 0.000 
0.010 1877.865 0.000 0.000 0.000 0.010 
0.020 -48.560 0.000 0.000 0.000 0.021 
0.030 251.563 0.000 0.000 0.000 0.031 
0.040 1129.164 0.000 0.000 0.000 0.042 
0.050 2739.156 0.000 0.000 0.000 0.052 
0.060 2540.099 0.000 0.000 0.000 0.062 
0.070 2686.674 0.000 0.000 0.000 0.073 
0.080 2338.326 0.000 0.000 0.000 0.083 
0.090 3377.201 0.000 0.000 0.000 0.094 
0.100 4316.212 0.000 0.000 0.000 0.104 
0.110 4592.566 0.000 0.000 0.000 0.115 
0.120 5066.373 0.000 0.000 0.000 0.125 
0.130 5458.111 0.000 0.000 0.000 0.135 
0.140 7232.119 0.000 0.000 0.000 0.146 
0.150 6521.778 0.000 0.000 0.000 0.156 
0.160 7731.656 0.000 0.000 0.000 0.167 
0.170 7573.516 0.000 0.000 0.000 0.177 
0.180 9294.405 0.000 0.000 0.000 0.187 
0.190 9047.872 0.000 0.000 0.000 0.198 
0.200 9302.334 0.000 0.000 0.000 0.208 
0.210 10115.257 0.000 0.000 0.000 0.219 
0.220 10851.492 0.000 0.000 0.000 0.229 
0.230 9888.827 0.000 0.000 0.000 0.239 
0.240 11897.820 0.000 0.000 0.000 0.250 
0.250 10839.968 0.000 0.000 0.000 0.260 
0.260 12007.915 0.000 0.000 0.000 0.271 
0.270 11901.856 0.000 0.000 0.000 0.281 
0.280 12900.307 0.000 0.000 0.000 0.291 
0.290 13600.389 0.000 0.000 0.000 0.302 
0.300 14614.204 0.000 0.000 0.000 0.312 
0.310 15465.741 0.000 0.000 0.000 0.323 
0.320 15135.545 0.000 0.000 0.000 0.333 
0.330 15120.522 0.000 0.000 0.000 0.344 
0.340 16407.241 0.000 0.000 0.000 0.354 
0.350 16006.324 0.000 0.000 0.000 0.364 
0.360 16562.964 0.000 0.000 0.000 0.375 
0.370 17635.817 0.000 0.000 0.000 0.385 
0.380 18413.477 0.000 0.000 0.000 0.396 
0.390 18569.093 0.000 0.000 0.000 0.406 
0.400 18912.770 0.000 0.000 0.000 0.416 
0.410 19831.753 0.000 0.000 0.000 0.427 
0.420 20140.558 0.000 0.000 0.000 0.437 
0.430 20072.923 0.000 0.000 0.000 0.448 
0.440 20453.190 0.000 0.000 0.000 0.458 
0.450 22335.310 0.000 0.000 0.000 0.468 
0.460 22358.502 0.000 0.000 0.000 0.479 
0.470 23361.646 0.000 0.000 0.000 0.489 
0.480 22438.018 0.000 0.000 0.000 0.500 
0.490 24074.431 0.000 0.000 0.000 0.510 
0.501 24064.647 0.000 0.000 0.000 0.521 
0.511 24290.482 0.000 0.000 0.000 0.531 
0.521 25326.929 0.000 0.000 0.000 0.541 
0.531 24320.161 0.000 0.000 0.000 0.552 
0.541 26867.907 0.000 0.000 0.000 0.562 
0.551 26960.988 0.000 0.000 0.000 0.573 
0.561 26110.314 0.000 0.000 0.000 0.583 
0.571 26415.112 0.000 0.000 0.000 0.593 
0.581 27384.542 0.000 0.000 0.000 0.604 
0.591 27221.379 0.000 0.000 0.000 0.614 
0.601 29688.775 0.000 0.000 0.000 0.625 
0.611 29338.011 0.000 0.000 0.000 0.635 
0.621 30500.945 0.000 0.000 0.000 0.645 
0.631 31714.004 0.000 0.000 0.000 0.656 
0.641 30248.793 0.000 0.000 0.000 0.666 
0.651 31154.075 0.000 0.000 0.000 0.677 
0.661 31535.843 0.000 0.000 0.000 0.687 
0.671 32116.072 0.000 0.000 0.000 0.697 
0.681 33426.181 0.000 0.000 0.000 0.708 
0.691 33162.967 0.000 0.000 0.000 0.718 
0.701 33895.357 0.000 0.000 0.000 0.729 
0.711 33802.604 0.000 0.000 0.000 0.739 
0.721 34884.630 0.000 0.000 0.000 0.750 
0.731 35166.566 0.000 0.000 0.000 0.760 
0.741 35887.870 0.000 0.000 0.000 0.770 
0.751 35525.930 0.000 0.000 0.000 0.781 
0.761 36712.396 0.000 0.000 0.000 0.791 
0.771 37944.070 0.000 0.000 0.000 0.802 
0.781 37440.397 0.000 0.000 0.000 0.812 
0.791 37193.857 0.000 0.000 0.000 0.822 
0.801 39029.791 0.000 0.000 0.000 0.833 
0.811 41046.875 0.000 0.000 0.000 0.843 
0.821 40421.843 0.000 0.000 0.000 0.854 
0.831 40252.594 0.000 0.000 0.000 0.864 
0.841 41920.117 0.000 0.000 0.000 0.874 
0.851 41787.082 0.000 0.000 0.000 0.885 
0.861 40781.267 0.000 0.000 0.000 0.895 
0.871 43259.714 0.000 0.000 0.000 0.906 
0.881 42023.354 0.000 0.000 0.000 0.916 
0.891 43189.205 0.000 0.000 0.000 0.927 
0.901 43508.737 0.000 0.000 0.000 0.937 
0.911 44157.433 0.000 0.000 0.000 0.947 
0.921 45143.997 0.000 0.000 0.000 0.958 
0.931 46120.537 0.000 0.000 0.000 0.968 
0.941 44656.708 0.000 0.000 0.000 0.979 
0.951 46537.651 0.000 0.000 0.000 0.989 
0.961 46108.639 0.000 0.000 0.000 0.999 
0.971 46881.968 0.000 0.000 0.000 1.010 
0.981 47170.418 0.000 0.000 0.000 1.020 
0.991 47971.285 0.000 0.000 0.000 1.031 
1.001 48347.281 0.000 0.000 0.000 1.041 
1.011 48608.381 0.000 0.000 0.000 1.051 
1.021 50620.622 0.000 0.000 0.000 1.062 
1.031 49904.547 0.000 0.000 0.000 1.072 
1.041 50119.525 0.000 0.000 0.000 1.083 
1.051 51161.473 0.000 0.000 0.000 1.093 
1.061 51756.596 0.000 0.000 0.000 1.104 
1.071 53012.467 0.000 0.000 0.000 1.114 
1.081 53519.074 0.000 0.000 0.000 1.124 
1.091 52599.599 0.000 0.000 0.000 1.135 
1.101 52534.338 0.000 0.000 0.000 1.145 
1.111 52796.531 0.000 0.000 0.000 1.156 
1.121 54634.058 0.000 0.000 0.000 1.166 
1.131 56091.714 0.000 0.000 0.000 1.176 
1.141 54784.710 0.000 0.000 0.000 1.187 
1.151 55523.445 0.000 0.000 0.000 1.197 
1.161 55766.821 0.000 0.000 0.000 1.208 
1.171 57031.743 0.000 0.000 0.000 1.218 
1.181 58545.821 0.000 0.000 0.000 1.228 
1.191 58008.240 0.000 0.000 0.000 1.239 
1.201 58720.494 0.000 0.000 0.000 1.249 
1.211 58283.502 0.000 0.000 0.000 1.260 
1.221 59592.086 0.000 0.000 0.000 1.270 
1.231 60337.304 0.000 0.000 0.000 1.280 
1.241 60604.700 0.000 0.000 0.000 1.291 
1.251 60703.690 0.000 0.000 0.000 1.301 
1.261 61255.638 0.000 0.000 0.000 1.312 
1.271 62090.909 0.000 0.000 0.000 1.322 
1.281 62682.018 0.000 0.000 0.000 1.333 
1.291 62738.091 0.000 0.000 0.000 1.343 
1.301 62367.607 0.000 0.000 0.000 1.353 
1.311 63903.339 0.000 0.000 0.000 1.364 
1.321 64200.496 0.000 0.000 0.000 1.374 
1.331 64653.716 0.000 0.000 0.000 1.385 
1.341 65568.224 0.000 0.000 0.000 1.395 
1.351 66412.437 0.000 0.000 0.000 1.405 
1.361 65453.430 0.000 0.000 0.000 1.416 
1.371 66237.436 0.000 0.000 0.000 1.426 
1.381 68712.759 0.000 0.000 0.000 1.437 
1.391 68106.304 0.000 0.000 0.000 1.447 
1.401 67962.808 0.000 0.000 0.000 1.457 
1.411 67541.801 0.000 0.000 0.000 1.468 
1.421 68981.488 0.000 0.000 0.000 1.478 
1.431 69232.913 0.000 0.000 0.000 1.489 
1.441 70393.314 0.000 0.000 0.000 1.499 
1.451 71430.461 0.000 0.000 0.000 1.510 
1.461 70503.575 0.000 0.000 0.000 1.520 
1.471 72336.762 0.000 0.000 0.000 1.530 
1.481 72349.199 0.000 0.000 0.000 1.541 
1.491 72411.008 0.000 0.000 0.000 1.551 
1.502 73940.686 0.000 0.000 0.000 1.562 
1.512 73521.833 0.000 0.000 0.000 1.572 
1.522 73780.011 0.000 0.000 0.000 1.582 
1.532 74000.209 0.000 0.000 0.000 1.593 
1.542 74397.240 0.000 0.000 0.000 1.603 
1.552 75590.673 0.000 0.000 0.000 1.614 
1.562 75978.437 0.000 0.000 0.000 1.624 
1.572 74909.174 0.000 0.000 0.000 1.634 
1.582 76337.978 0.000 0.000 0.000 1.645 
1.592 78689.202 0.000 0.000 0.000 1.655 
1.602 78565.011 0.000 0.000 0.000 1.666 
1.612 78590.503 0.000 0.000 0.000 1.676 
1.622 77633.252 0.000 0.000 0.000 1.686 
1.632 78774.516 0.000 0.000 0.000 1.697 
1.642 79672.473 0.000 0.000 0.000 1.707 
1.652 78987.315 0.000 0.000 0.000 1.718 
1.662 81717.065 0.000 0.000 0.000 1.728 
1.672 80895.400 0.000 0.000 0.000 1.739 
1.682 82294.348 0.000 0.000 0.000 1.749 
1.692 82479.115 0.000 0.000 0.000 1.759 
1.702 82743.366 0.000 0.000 0.000 1.770 
1.712 84080.867 0.000 0.000 0.000 1.780 
1.722 82005.631 0.000 0.000 0.000 1.791 
1.732 84079.523 0.000 0.000 0.000 1.801 
1.742 85971.246 0.000 0.000 0.000 1.811 
1.752 85980.278 0.000 0.000 0.000 1.822 
1.762 84617.969 0.000 0.000 0.000 1.832 
1.772 85518.270 0.000 0.000 0.000 1.843 
1.782 87069.947 0.000 0.000 0.000 1.853 
1.792 88797.831 0.000 0.000 0.000 1.863 
1.802 89962.427 0.000 0.000 0.000 1.874 
1.812 87891.761 0.000 0.000 0.000 1.884 
1.822 88663.738 0.000 0.000 0.000 1.895 
1.832 89996.614 0.000 0.000 0.000 1.905 
1.842 88321.260 0.000 0.000 0.000 1.916 
1.852 90325.065 0.000 0.000 0.000 1.926 
1.862 90404.286 0.000 0.000 0.000 1.936 
1.872 91489.776 0.000 0.000 0.000 1.947 
1.882 91380.611 0.000 0.000 0.000 1.957 
1.892 92846.300 0.000 0.000 0.000 1.968 
1.902 91876.929 0.000 0.000 0.000 1.978 
1.912 93547.745 0.000 0.000 0.000 1.988 
1.922 94758.542 0.000 0.000 0.000 1.999 
1.932 94242.805 0.000 0.000 0.000 2.009 
1.942 95119.354 0.000 0.000 0.000 2.020 
1.952 95901.264 0.000 0.000 0.000 2.030 
1.962 94810.454 0.000 0.000 0.000 2.040 
1.972 95543.762 0.000 0.000 0.000 2.051 
1.982 97205.679 0.000 0.000 0.000 2.061 
1.992 97252.754 0.000 0.000 0.000 2.072 
2.002 97386.909 0.000 0.000 0.000 2.082 
2.012 98246.088 0.000 0.000 0.000 2.092 
2.022 98413.358 0.000 0.000 0.000 2.103 
2.032 96495.352 0.000 0.000 0.000 2.113 
2.042 98820.550 0.000 0.000 0.000 2.124 
2.052 99143.551 0.000 0.000 0.000 2.134 
2.062 100151.443 0.000 0.000 0.000 2.145 
2.072 100652.910 0.000 0.000 0.000 2.155 
2.082 101329.169 0.000 0.000 0.000 2.165 
2.092 101865.781 0.000 0.000 0.000 2.176 
2.102 101397.402 0.000 0.000 0.000 2.186 
2.112 101882.950 0.000 0.000 0.000 2.197 
2.122 102444.575 0.000 0.000 0.000 2.207 
2.132 103982.697 0.000 0.000 0.000 2.217 
2.142 104555.461 0.000 0.000 0.000 2.228 
2.152 105267.236 0.000 0.000 0.000 2.238 
2.162 105104.211 0.000 0.000 0.000 2.249 
2.172 105481.584 0.000 0.000 0.000 2.259 
2.182 106208.305 0.000 0.000 0.000 2.269 
2.192 105879.245 0.000 0.000 0.000 2.280 
2.202 106431.338 0.000 0.000 0.000 2.290 
2.212 108146.526 0.000 0.000 0.000 2.301 
2.222 107616.483 0.000 0.000 0.000 2.311 
2.232 108408.369 0.000 0.000 0.000 2.322 
2.242 109013.679 0.000 0.000 0.000 2.332 
2.252 109792.125 0.000 0.000 0.000 2.342 
2.262 110477.604 0.000 0.000 0.000 2.353 
2.272 111222.648 0.000 0.000 0.000 2.363 
2.282 111114.466 0.000 0.000 0.000 2.374 
2.292 112085.181 0.000 0.000 0.000 2.384 
2.302 110256.880 0.000 0.000 0.000 2.394 
2.312 113894.695 0.000 0.000 0.000 2.405 
2.322 115319.179 0.000 0.000 0.000 2.415 
2.332 114767.911 0.000 0.000 0.000 2.426 
2.342 113539.811 0.000 0.000 0.000 2.436 
2.352 115209.556 0.000 0.000 0.000 2.446 
2.362 114709.130 0.000 0.000 0.000 2.457 
2.372 115116.593 0.000 0.000 0.000 2.467 
2.382 116708.699 0.000 0.000 0.000 2.478 
2.392 115065.794 0.000 0.000 0.000 2.488 
2.402 117246.414 0.000 0.000 0.000 2.498 
2.412 117983.176 0.000 0.000 0.000 2.509 
2.422 118457.999 0.000 0.000 0.000 2.519 
2.432 118518.629 0.000 0.000 0.000 2.530 
2.442 119056.890 0.000 0.000 0.000 2.540 
2.452 120436.073 0.000 0.000 0.000 2.551 
2.462 119835.283 0.000 0.000 0.000 2.561 
2.472 119762.291 0.000 0.000 0.000 2.571 
2.482 120053.031 0.000 0.000 0.000 2.582 
2.492 122308.231 0.000 0.000 0.000 2.592 
2.503 123155.663 0.000 0.000 0.000 2.603 
2.513 123117.561 0.000 0.000 0.000 2.613 
2.523 123014.962 0.000 0.000 0.000 2.623 
2.533 124634.712 0.000 0.000 0.000 2.634 
2.543 124298.186 0.000 0.000 0.000 2.644 
2.553 124646.327 0.000 0.000 0.000 2.655 
2.563 124797.086 0.000 0.000 0.000 2.665 
2.573 126841.114 0.000 0.000 0.000 2.675 
2.583 125585.056 0.000 0.000 0.000 2.686 
2.593 125883.196 0.000 0.000 0.000 2.696 
2.603 126941.702 0.000 0.000 0.000 2.707 
2.613 126490.561 0.000 0.000 0.000 2.717 
2.623 127567.796 0.000 0.000 0.000 2.728 
2.633 127690.273 0.000 0.000 0.000 2.738 
2.643 129285.136 0.000 0.000 0.000 2.748 
2.653 128485.065 0.000 0.000 0.000 2.759 
2.663 129296.552 0.000 0.000 0.000 2.769 
2.673 131062.222 0.000 0.000 0.000 2.780 
2.683 131744.813 0.000 0.000 0.000 2.790 
2.693 131341.828 0.000 0.000 0.000 2.800 
2.703 131392.482 0.000 0.000 0.000 2.811 
2.713 132436.318 0.000 0.000 0.000 2.821 
2.723 132753.944 0.000 0.000 0.000 2.832 
2.733 134244.182 0.000 0.000 0.000 2.842 
2.743 133353.933 0.000 0.000 0.000 2.852 
2.753 134314.559 0.000 0.000 0.000 2.863 
2.763 134810.208 0.000 0.000 0.000 2.873 
2.773 134725.885 0.000 0.000 0.000 2.884 
2.783 135603.332 0.000 0.000 0.000 2.894 
2.793 135758.790 0.000 0.000 0.000 2.905 
2.803 136184.315 0.000 0.000 0.000 2.915 
2.813 137216.207 0.000 0.000 0.000 2.925 
2.823 137766.770 0.000 0.000 0.000 2.936 
2.833 139616.464 0.000 0.000 0.000 2.946 
2.843 138276.906 0.000 0.000 0.000 2.957 
2.853 138868.025 0.000 0.000 0.000 2.967 
2.863 140414.548 0.000 0.000 0.000 2.977 
2.873 139883.950 0.000 0.000 0.000 2.988 
2.883 140156.915 0.000 0.000 0.000 2.998 
2.893 141314.640 0.000 0.000 0.000 3.009 
2.903 141953.378 0.000 0.000 0.000 3.019 
2.913 142666.232 0.000 0.000 0.000 3.029 
2.923 142291.071 0.000 0.000 0.000 3.040 
2.933 143096.954 0.000 0.000 0.000 3.050 
2.943 143651.436 0.000 0.000 0.000 3.061 
2.953 144928.964 0.000 0.000 0.000 3.071 
2.963 144530.705 0.000 0.000 0.000 3.081 
2.973 146181.805 0.000 0.000 0.000 3.092 
2.983 145646.325 0.000 0.000 0.000 3.102 
2.993 146472.901 0.000 0.000 0.000 3.113 
3.003 145723.138 0.000 0.000 0.000 3.123 
3.013 146401.072 0.000 0.000 0.000 3.134 
3.023 146006.572 0.000 0.000 0.000 3.144 
3.033 145953.927 0.000 0.000 0.000 3.154 
3.043 146441.293 0.000 0.000 0.000 3.165 
3.053 145081.034 0.000 0.000 0.000 3.175 
3.063 145688.874 0.000 0.000 0.000 3.186 
3.073 144706.354 0.000 0.000 0.000 3.196 
3.083 142964.632 0.000 0.000 0.000 3.206 
3.093 144552.557 0.000 0.000 0.000 3.217 
3.103 144970.962 0.000 0.000 0.000 3.227 
3.113 146130.989 0.000 0.000 0.000 3.238 
3.123 144347.684 0.000 0.000 0.000 3.248 
3.133 144261.033 0.000 0.000 0.000 3.258 
3.143 142841.557 0.000 0.000 0.000 3.269 
3.153 143783.253 0.000 0.000 0.000 3.279 
3.163 144269.542 0.000 0.000 0.000 3.290 
3.173 143786.396 0.000 0.000 0.000 3.300 
3.183 142945.092 0.000 0.000 0.000 3.311 
3.193 143154.798 0.000 0.000 0.000 3.321 
3.203 142443.092 0.000 0.000 0.000 3.331 
3.213 143313.563 0.000 0.000 0.000 3.342 
3.223 143421.726 0.000 0.000 0.000 3.352 
3.233 143087.932 0.000 0.000 0.000 3.363 
3.243 144141.169 0.000 0.000 0.000 3.373 
3.253 142841.862 0.000 0.000 0.000 3.383 
3.263 142384.969 0.000 0.000 0.000 3.394 
3.273 142617.007 0.000 0.000 0.000 3.404 
3.283 141948.892 0.000 0.000 0.000 3.415 
3.293 142388.986 0.000 0.000 0.000 3.425 
3.303 143240.231 0.000 0.000 0.000 3.435 
3.313 142139.770 0.000 0.000 0.000 3.446 
3.323 142497.754 0.000 0.000 0.000 3.456 
3.333 142190.888 0.000 0.000 0.000 3.467 
3.343 142205.132 0.000 0.000 0.000 3.477 
3.353 142166.267 0.000 0.000 0.000 3.487 
3.363 141526.569 0.000 0.000 0.000 3.498 
3.373 141911.186 0.000 0.000 0.000 3.508 
3.383 143152.079 0.000 0.000 0.000 3.519 
3.393 142265.956 0.000 0.000 0.000 3.529 
3.403 141985.330 0.000 0.000 0.000 3.540 
3.413 141938.685 0.000 0.000 0.000 3.550 
3.423 142313.021 0.000 0.000 0.000 3.560 
3.433 142213.537 0.000 0.000 0.000 3.571 
3.443 141487.390 0.000 0.000 0.000 3.581 
3.453 144057.097 0.000 0.000 0.000 3.592 
3.463 141857.903 0.000 0.000 0.000 3.602 
3.473 141679.541 0.000 0.000 0.000 3.612 
3.483 141385.392 0.000 0.000 0.000 3.623 
3.493 142961.527 0.000 0.000 0.000 3.633 
3.504 142622.955 0.000 0.000 0.000 3.644 
3.514 142222.845 0.000 0.000 0.000 3.654 
3.524 141187.596 0.000 0.000 0.000 3.664 
3.534 143077.653 0.000 0.000 0.000 3.675 
3.544 143377.469 0.000 0.000 0.000 3.685 
3.554 142851.087 0.000 0.000 0.000 3.696 
3.564 142015.027 0.000 0.000 0.000 3.706 
3.574 143515.714 0.000 0.000 0.000 3.717 
3.584 141939.398 0.000 0.000 0.000 3.727 
3.594 142853.346 0.000 0.000 0.000 3.737 
3.604 141594.188 0.000 0.000 0.000 3.748 
3.614 141213.134 0.000 0.000 0.000 3.758 
3.624 143064.640 0.000 0.000 0.000 3.769 
3.634 142823.219 0.000 0.000 0.000 3.779 
3.644 141621.684 0.000 0.000 0.000 3.789 
3.654 141968.416 0.000 0.000 0.000 3.800 
3.664 142369.591 0.000 0.000 0.000 3.810 
3.674 142169.226 0.000 0.000 0.000 3.821 
3.684 142113.011 0.000 0.000 0.000 3.831 
3.694 143220.641 0.000 0.000 0.000 3.841 
3.704 141643.025 0.000 0.000 0.000 3.852 
3.714 142862.890 0.000 0.000 0.000 3.862 
3.724 143599.110 0.000 0.000 0.000 3.873 
3.734 143322.339 0.000 0.000 0.000 3.883 
3.744 142492.707 0.000 0.000 0.000 3.893 
3.754 142246.150 0.000 0.000 0.000 3.904 
3.764 143095.037 0.000 0.000 0.000 3.914 
3.774 142573.927 0.000 0.000 0.000 3.925 
3.784 142015.559 0.000 0.000 0.000 3.935 
3.794 143666.621 0.000 0.000 0.000 3.946 
3.804 142408.197 0.000 0.000 0.000 3.956 
3.814 143896.872 0.000 0.000 0.000 3.966 
3.824 141659.188 0.000 0.000 0.000 3.977 
3.834 142668.440 0.000 0.000 0.000 3.987 
3.844 142543.530 0.000 0.000 0.000 3.998 
3.854 141395.802 0.000 0.000 0.000 4.008 
3.864 142992.104 0.000 0.000 0.000 4.018 
3.874 142019.438 0.000 0.000 0.000 4.029 
3.884 142211.519 0.000 0.000 0.000 4.039 
3.894 141065.767 0.000 0.000 0.000 4.050 
3.904 143396.377 0.000 0.000 0.000 4.060 
3.914 142423.361 0.000 0.000 0.000 4.070 
3.924 141583.707 0.000 0.000 0.000 4.081 
3.934 141529.900 0.000 0.000 0.000 4.091 
3.944 143098.329 0.000 0.000 0.000 4.102 
3.954 142434.212 0.000 0.000 0.000 4.112 
3.964 143149.135 0.000 0.000 0.000 4.123 
3.974 141779.646 0.000 0.000 0.000 4.133 
3.984 141575.409 0.000 0.000 0.000 4.143 
3.994 142334.842 0.000 0.000 0.000 4.154 
4.004 142374.738 0.000 0.000 0.000 4.164 
4.014 142391.784 0.000 0.000 0.000 4.175 
4.024 141564.122 0.000 0.000 0.000 4.185 
4.034 142815.160 0.000 0.000 0.000 4.195 
4.044 143240.736 0.000 0.000 0.000 4.206 
4.054 141888.139 0.000 0.000 0.000 4.216 
4.064 141513.592 0.000 0.000 0.000 4.227 
4.074 141716.985 0.000 0.000 0.000 4.237 
4.084 141825.767 0.000 0.000 0.000 4.247 
4.094 142286.737 0.000 0.000 0.000 4.258 
4.104 141941.625 0.000 0.000 0.000 4.268 
4.114 143738.064 0.000 0.000 0.000 4.279 
4.124 141939.113 0.000 0.000 0.000 4.289 
4.134 141390.113 0.000 0.000 0.000 4.299 
4.144 142553.921 0.000 0.000 0.000 4.310 
4.154 141934.302 0.000 0.000 0.000 4.320 
4.164 142789.936 0.000 0.000 0.000 4.331 
4.174 142123.612 0.000 0.000 0.000 4.341 
4.184 143450.554 0.000 0.000 0.000 4.352 
4.194 142542.558 0.000 0.000 0.000 4.362 
4.204 143004.929 0.000 0.000 0.000 4.372 
4.214 142037.920 0.000 0.000 0.000 4.383 
4.224 143090.974 0.000 0.000 0.000 4.393 
4.234 141639.011 0.000 0.000 0.000 4.404 
4.244 141789.654 0.000 0.000 0.000 4.414 
4.254 142576.098 0.000 0.000 0.000 4.424 
4.264 142619.119 0.000 0.000 0.000 4.435 
4.274 142039.038 0.000 0.000 0.000 4.445 
4.284 142035.641 0.000 0.000 0.000 4.456 
4.294 142252.392 0.000 0.000 0.000 4.466 
4.304 141915.414 0.000 0.000 0.000 4.476 
4.314 141324.701 0.000 0.000 0.000 4.487 
4.324 143904.238 0.000 0.000 0.000 4.497 
4.334 143320.089 0.000 0.000 0.000 4.508 
4.344 142738.654 0.000 0.000 0.000 4.518 
4.354 143101.214 0.000 0.000 0.000 4.529 
4.364 142699.779 0.000 0.000 0.000 4.539 
4.374 141802.119 0.000 0.000 0.000 4.549 
4.384 142759.630 0.000 0.000 0.000 4.560 
4.394 144159.109 0.000 0.000 0.000 4.570 
4.404 142777.417 0.000 0.000 0.000 4.581 
4.414 141858.444 0.000 0.000 0.000 4.591 
4.424 142204.172 0.000 0.000 0.000 4.601 
4.434 142560.919 0.000 0.000 0.000 4.612 
4.444 142352.012 0.000 0.000 0.000 4.622 
4.454 143420.938 0.000 0.000 0.000 4.633 
4.464 142043.063 0.000 0.000 0.000 4.643 
4.474 143471.823 0.000 0.000 0.000 4.653 
4.484 142031.088 0.000 0.000 0.000 4.664 
4.494 142563.924 0.000 0.000 0.000 4.674 
4.505 142112.956 0.000 0.000 0.000 4.685 
4.515 142372.840 0.000 0.000 0.000 4.695 
4.525 142853.516 0.000 0.000 0.000 4.706 
4.535 142960.845 0.000 0.000 0.000 4.716 
4.545 141445.848 0.000 0.000 0.000 4.726 
4.555 141747.864 0.000 0.000 0.000 4.737 
4.565 142883.221 0.000 0.000 0.000 4.747 
4.575 142326.193 0.000 0.000 0.000 4.758 
4.585 142303.761 0.000 0.000 0.000 4.768 
4.595 141427.261 0.000 0.000 0.000 4.778 
4.605 142685.922 0.000 0.000 0.000 4.789 
4.615 142510.487 0.000 0.000 0.000 4.799 
4.625 142101.730 0.000 0.000 0.000 4.810 
4.635 143919.869 0.000 0.000 0.000 4.820 
4.645 142081.817 0.000 0.000 0.000 4.830 
4.655 142106.563 0.000 0.000 0.000 4.841 
4.665 141223.033 0.000 0.000 0.000 4.851 
4.675 142256.044 0.000 0.000 0.000 4.862 
4.685 143055.946 0.000 0.000 0.000 4.872 
4.695 142428.081 0.000 0.000 0.000 4.882 
4.705 142099.154 0.000 0.000 0.000 4.893 
4.715 141703.978 0.000 0.000 0.000 4.903 
4.725 142741.953 0.000 0.000 0.000 4.914 
4.735 141592.562 0.000 0.000 0.000 4.924 
4.745 142926.578 0.000 0.000 0.000 4.935 
4.755 142174.051 0.000 0.000 0.000 4.945 
4.765 141971.120 0.000 0.000 0.000 4.955 
4.775 142397.379 0.000 0.000 0.000 4.966 
4.785 142318.076 0.000 0.000 0.000 4.976 
4.795 142057.729 0.000 0.000 0.000 4.987 
4.805 142022.059 0.000 0.000 0.000 4.997 
4.815 142355.598 0.000 0.000 0.000 5.007 
4.825 142545.676 0.000 0.000 0.000 5.018 
4.835 143200.352 0.000 0.000 0.000 5.028 
4.845 142943.446 0.000 0.000 0.000 5.039 
4.855 143519.311 0.000 0.000 0.000 5.049 
4.865 142248.967 0.000 0.000 0.000 5.059 
4.875 142435.221 0.000 0.000 0.000 5.070 
4.885 142497.019 0.000 0.000 0.000 5.080 
4.895 143953.294 0.000 0.000 0.000 5.091 
4.905 144007.950 0.000 0.000 0.000 5.101 
4.915 143323.982 0.000 0.000 0.000 5.112 
4.925 143938.627 0.000 0.000 0.000 5.122 
4.935 142526.004 0.000 0.000 0.000 5.132 
4.945 142644.538 0.000 0.000 0.000 5.143 
4.955 142428.737 0.000 0.000 0.000 5.153 
4.965 143924.897 0.000 0.000 0.000 5.164 
4.975 141716.230 0.000 0.000 0.000 5.174 
4.985 141999.118 0.000 0.000 0.000 5.184 
4.995 143302.648 0.000 0.000 0.000 5.195 
5.005 142597.581 0.000 0.000 0.000 5.205 
5.015 143141.877 0.000 0.000 0.000 5.216 
5.025 142705.503 0.000 0.000 0.000 5.226 
5.035 143179.514 0.000 0.000 0.000 5.236 
5.045 143352.310 0.000 0.000 0.000 5.247 
5.055 142479.864 0.000 0.000 0.000 5.257 
5.065 141816.615 0.000 0.000 0.000 5.268 
5.075 142142.274 0.000 0.000 0.000 5.278 
5.085 142662.998 0.000 0.000 0.000 5.288 
5.095 143050.019 0.000 0.000 0.000 5.299 
5.105 143069.328 0.000 0.000 0.000 5.309 
5.115 142341.220 0.000 0.000 0.000 5.320 
5.125 142212.659 0.000 0.000 0.000 5.330 
5.135 143095.040 0.000 0.000 0.000 5.341 
5.145 143746.559 0.000 0.000 0.000 5.351 
5.155 141702.806 0.000 0.000 0.000 5.361 
5.165 143712.931 0.000 0.000 0.000 5.372 
5.175 141492.585 0.000 0.000 0.000 5.382 
5.185 142468.145 0.000 0.000 0.000 5.393 
5.195 141958.643 0.000 0.000 0.000 5.403 
5.205 142734.075 0.000 0.000 0.000 5.413 
5.215 144197.614 0.000 0.000 0.000 5.424 
5.225 142270.582 0.000 0.000 0.000 5.434 
5.235 143136.302 0.000 0.000 0.000 5.445 
5.245 142612.566 0.000 0.000 0.000 5.455 
5.255 141412.582 0.000 0.000 0.000 5.465 
5.265 142045.025 0.000 0.000 0.000 5.476 
5.275 142838.667 0.000 0.000 0.000 5.486 
5.285 141579.413 0.000 0.000 0.000 5.497 
5.295 141744.820 0.000 0.000 0.000 5.507 
5.305 141831.276 0.000 0.000 0.000 5.518 
5.315 141255.978 0.000 0.000 0.000 5.528 
5.325 142900.226 0.000 0.000 0.000 5.538 
5.335 143554.567 0.000 0.000 0.000 5.549 
5.345 141891.210 0.000 0.000 0.000 5.559 
5.355 142855.758 0.000 0.000 0.000 5.570 
5.365 142987.982 0.000 0.000 0.000 5.580 
5.375 142939.545 0.000 0.000 0.000 5.590 
5.385 142422.884 0.000 0.000 0.000 5.601 
5.395 141304.989 0.000 0.000 0.000 5.611 
5.405 142335.715 0.000 0.000 0.000 5.622 
5.415 143238.992 0.000 0.000 0.000 5.632 
5.425 142794.126 0.000 0.000 0.000 5.642 
5.435 142967.750 0.000 0.000 0.000 5.653 
5.445 142827.308 0.000 0.000 0.000 5.663 
5.455 142814.115 0.000 0.000 0.000 5.674 
5.465 142385.000 0.000 0.000 0.000 5.684 
5.475 141459.553 0.000 0.000 0.000 5.694 
5.485 141782.844 0.000 0.000 0.000 5.705 
5.495 142799.247 0.000 0.000 0.000 5.715 
5.506 142764.867 0.000 0.000 0.000 5.726 
5.516 142459.724 0.000 0.000 0.000 5.736 
5.526 143674.205 0.000 0.000 0.000 5.747 
5.536 142057.922 0.000 0.000 0.000 5.757 
5.546 143198.369 0.000 0.000 0.000 5.767 
5.556 142946.013 0.000 0.000 0.000 5.778 
5.566 142485.900 0.000 0.000 0.000 5.788 
5.576 142513.654 0.000 0.000 0.000 5.799 
5.586 141656.583 0.000 0.000 0.000 5.809 
5.596 143883.421 0.000 0.000 0.000 5.819 
5.606 143333.158 0.000 0.000 0.000 5.830 
5.616 141608.532 0.000 0.000 0.000 5.840 
5.626 142928.052 0.000 0.000 0.000 5.851 
5.636 142875.739 0.000 0.000 0.000 5.861 
5.646 141527.361 0.000 0.000 0.000 5.871 
5.656 141913.922 0.000 0.000 0.000 5.882 
5.666 143285.800 0.000 0.000 0.000 5.892 
5.676 142747.439 0.000 0.000 0.000 5.903 
5.686 141301.937 0.000 0.000 0.000 5.913 
5.696 144403.329 0.000 0.000 0.000 5.924 
5.706 143056.878 0.000 0.000 0.000 5.934 
5.716 142113.093 0.000 0.000 0.000 5.944 
5.726 143527.067 0.000 0.000 0.000 5.955 
5.736 142573.188 0.000 0.000 0.000 5.965 
5.746 141425.754 0.000 0.000 0.000 5.976 
5.756 141647.890 0.000 0.000 0.000 5.986 
5.766 142997.549 0.000 0.000 0.000 5.996 
5.776 141771.359 0.000 0.000 0.000 6.007 
5.786 142485.910 0.000 0.000 0.000 6.017 
5.796 144028.991 0.000 0.000 0.000 6.028 
5.806 142109.530 0.000 0.000 0.000 6.038 
5.816 142838.048 0.000 0.000 0.000 6.048 
5.826 142679.554 0.000 0.000 0.000 6.059 
5.836 143176.070 0.000 0.000 0.000 6.069 
5.846 143534.066 0.000 0.000 0.000 6.080 
5.856 141994.026 0.000 0.000 0.000 6.090 
5.866 141628.494 0.000 0.000 0.000 6.101 
5.876 141216.615 0.000 0.000 0.000 6.111 
5.886 142818.867 0.000 0.000 0.000 6.121 
5.896 141785.130 0.000 0.000 0.000 6.132 
5.906 141428.304 0.000 0.000 0.000 6.142 
5.916 141946.317 0.000 0.000 0.000 6.153 
5.926 142217.889 0.000 0.000 0.000 6.163 
5.936 141301.395 0.000 0.000 0.000 6.173 
5.946 141869.604 0.000 0.000 0.000 6.184 
5.956 141339.900 0.000 0.000 0.000 6.194 
5.966 141502.576 0.000 0.000 0.000 6.205 
5.976 142096.809 0.000 0.000 0.000 6.215 
5.986 142123.451 0.000 0.000 0.000 6.225 
5.996 142943.918 0.000 0.000 0.000 6.236 
6.006 143173.633 0.000 0.000 0.000 6.246 
6.016 142421.854 0.000 0.000 0.000 6.257 
6.026 142940.559 0.000 0.000 0.000 6.267 
6.036 141606.944 0.000 0.000 0.000 6.277 
6.046 142822.283 0.000 0.000 0.000 6.288 
6.056 143520.247 0.000 0.000 0.000 6.298 
6.066 142177.206 0.000 0.000 0.000 6.309 
6.076 142985.249 0.000 0.000 0.000 6.319 
6.086 141293.004 0.000 0.000 0.000 6.330 
6.096 142789.926 0.000 0.000 0.000 6.340 
6.106 141596.874 0.000 0.000 0.000 6.350 
6.116 143660.333 0.000 0.000 0.000 6.361 
6.126 141930.084 0.000 0.000 0.000 6.371 
6.136 142127.704 0.000 0.000 0.000 6.382 
6.146 142682.423 0.000 0.000 0.000 6.392 
6.156 141912.333 0.000 0.000 0.000 6.402 
6.166 141818.318 0.000 0.000 0.000 6.413 
6.176 143401.927 0.000 0.000 0.000 6.423 
6.186 142145.447 0.000 0.000 0.000 6.434 
6.196 141862.394 0.000 0.000 0.000 6.444 
6.206 141075.651 0.000 0.000 0.000 6.454 
6.216 143682.079 0.000 0.000 0.000 6.465 
6.226 143766.493 0.000 0.000 0.000 6.475 
6.236 142917.524 0.000 0.000 0.000 6.486 
6.246 142084.599 0.000 0.000 0.000 6.496 
6.256 141763.842 0.000 0.000 0.000 6.507 
6.266 142644.169 0.000 0.000 0.000 6.517 
6.276 142991.403 0.000 0.000 0.000 6.527 
6.286 142514.885 0.000 0.000 0.000 6.538 
6.296 142564.525 0.000 0.000 0.000 6.548 
6.306 143025.237 0.000 0.000 0.000 6.559 
6.316 143186.112 0.000 0.000 0.000 6.569 
6.326 142971.826 0.000 0.000 0.000 6.579 
6.336 141368.524 0.000 0.000 0.000 6.590 
6.346 143664.633 0.000 0.000 0.000 6.600 
6.356 142626.659 0.000 0.000 0.000 6.611 
6.366 143071.046 0.000 0.000 0.000 6.621 
6.376 142403.244 0.000 0.000 0.000 6.631 
6.386 143035.506 0.000 0.000 0.000 6.642 
6.396 141512.491 0.000 0.000 0.000 6.652 
6.406 141264.911 0.000 0.000 0.000 6.663 
6.416 142075.028 0.000 0.000 0.000 6.673 
6.426 142061.246 0.000 0.000 0.000 6.683 
6.436 140271.552 0.000 0.000 0.000 6.694 
6.446 142226.162 0.000 0.000 0.000 6.704 
6.456 142036.258 0.000 0.000 0.000 6.715 
6.466 142226.294 0.000 0.000 0.000 6.725 
6.476 142077.584 0.000 0.000 0.000 6.736 
6.486 142090.417 0.000 0.000 0.000 6.746 
6.496 142310.951 0.000 0.000 0.000 6.756 
6.507 141843.745 0.000 0.000 0.000 6.767 
6.517 142214.031 0.000 0.000 0.000 6.777 
6.527 142009.649 0.000 0.000 0.000 6.788 
6.537 142581.253 0.000 0.000 0.000 6.798 
6.547 142947.956 0.000 0.000 0.000 6.808 
6.557 142684.617 0.000 0.000 0.000 6.819 
6.567 141850.379 0.000 0.000 0.000 6.829 
6.577 142877.237 0.000 0.000 0.000 6.840 
6.587 141936.433 0.000 0.000 0.000 6.850 
6.597 141794.324 0.000 0.000 0.000 6.860 
6.607 142054.877 0.000 0.000 0.000 6.871 
6.617 142734.458 0.000 0.000 0.000 6.881 
6.627 141436.065 0.000 0.000 0.000 6.892 
6.637 143184.329 0.000 0.000 0.000 6.902 
6.647 143544.921 0.000 0.000 0.000 6.913 
6.657 143236.210 0.000 0.000 0.000 6.923 
6.667 141803.053 0.000 0.000 0.000 6.933 
6.677 141051.842 0.000 0.000 0.000 6.944 
6.687 142595.820 0.000 0.000 0.000 6.954 
6.697 141963.616 0.000 0.000 0.000 6.965 
6.707 143575.821 0.000 0.000 0.000 6.975 
6.717 143150.132 0.000 0.000 0.000 6.985 
6.727 142043.543 0.000 0.000 0.000 6.996 
6.737 141733.371 0.000 0.000 0.000 7.006 
6.747 141207.646 0.000 0.000 0.000 7.017 
6.757 143017.769 0.000 0.000 0.000 7.027 
6.767 142161.913 0.000 0.000 0.000 7.037 
6.777 142198.581 0.000 0.000 0.000 7.048 
6.787 142887.131 0.000 0.000 0.000 7.058 
6.797 142042.786 0.000 0.000 0.000 7.069 
6.807 142558.413 0.000 0.000 0.000 7.079 
6.817 141656.679 0.000 0.000 0.000 7.089 
6.827 143715.052 0.000 0.000 0.000 7.100 
6.837 141823.966 0.000 0.000 0.000 7.110 
6.847 140422.149 0.000 0.000 0.000 7.121 
6.857 142349.557 0.000 0.000 0.000 7.131 
6.867 141985.713 0.000 0.000 0.000 7.142 
6.877 142541.816 0.000 0.000 0.000 7.152 
6.887 142223.456 0.000 0.000 0.000 7.162 
6.897 141530.960 0.000 0.000 0.000 7.173 
6.907 140954.181 0.000 0.000 0.000 7.183 
6.917 142589.689 0.000 0.000 0.000 7.194 
6.927 141177.242 0.000 0.000 0.000 7.204 
6.937 142134.984 0.000 0.000 0.000 7.214 
6.947 141925.207 0.000 0.000 0.000 7.225 
6.957 141549.200 0.000 0.000 0.000 7.235 
6.967 142703.024 0.000 0.000 0.000 7.246 
6.977 142144.755 0.000 0.000 0.000 7.256 
6.987 141717.713 0.000 0.000 0.000 7.266 
6.997 142475.136 0.000 0.000 0.000 7.277 
7.007 142234.602 0.000 0.000 0.000 7.287 
7.017 142911.702 0.000 0.000 0.000 7.298 
7.027 142106.395 0.000 0.000 0.000 7.308 
7.037 142792.477 0.000 0.000 0.000 7.319 
7.047 141287.943 0.000 0.000 0.000 7.329 
7.057 142266.946 0.000 0.000 0.000 7.339 
7.067 142759.059 0.000 0.000 0.000 7.350 
7.077 142768.610 0.000 0.000 0.000 7.360 
7.087 141836.987 0.000 0.000 0.000 7.371 
7.097 141356.943 0.000 0.000 0.000 7.381 
7.107 142087.531 0.000 0.000 0.000 7.391 
7.117 141688.678 0.000 0.000 0.000 7.402 
7.127 142362.039 0.000 0.000 0.000 7.412 
7.137 141527.244 0.000 0.000 0.000 7.423 
7.147 142555.094 0.000 0.000 0.000 7.433 
7.157 142896.433 0.000 0.000 0.000 7.443 
7.167 140915.199 0.000 0.000 0.000 7.454 
7.177 141798.165 0.000 0.000 0.000 7.464 
7.187 142609.546 0.000 0.000 0.000 7.475 
7.197 142646.835 0.000 0.000 0.000 7.485 
7.207 141818.162 0.000 0.000 0.000 7.495 
7.217 141791.323 0.000 0.000 0.000 7.506 
7.227 142356.606 0.000 0.000 0.000 7.516 
7.237 142687.861 0.000 0.000 0.000 7.527 
7.247 143309.958 0.000 0.000 0.000 7.537 
7.257 142372.648 0.000 0.000 0.000 7.548 
7.267 140873.764 0.000 0.000 0.000 7.558 
7.277 141946.689 0.000 0.000 0.000 7.568 
7.287 141472.802 0.000 0.000 0.000 7.579 
7.297 142027.577 0.000 0.000 0.000 7.589 
7.307 143030.737 0.000 0.000 0.000 7.600 
7.317 142102.666 0.000 0.000 0.000 7.610 
7.327 142970.869 0.000 0.000 0.000 7.620 
7.337 141958.824 0.000 0.000 0.000 7.631 
7.347 141962.609 0.000 0.000 0.000 7.641 
7.357 141757.578 0.000 0.000 0.000 7.652 
7.367 141582.416 0.000 0.000 0.000 7.662 
7.377 141355.276 0.000 0.000 0.000 7.672 
7.387 142116.600 0.000 0.000 0.000 7.683 
7.397 142032.025 0.000 0.000 0.000 7.693 
7.407 142821.590 0.000 0.000 0.000 7.704 
7.417 141794.833 0.000 0.000 0.000 7.714 
7.427 142336.473 0.000 0.000 0.000 7.725 
7.437 141185.845 0.000 0.000 0.000 7.735 
7.447 144104.493 0.000 0.000 0.000 7.745 
7.457 142207.057 0.000 0.000 0.000 7.756 
7.467 141869.212 0.000 0.000 0.000 7.766 
7.477 142104.550 0.000 0.000 0.000 7.777 
7.487 141438.114 0.000 0.000 0.000 7.787 
7.497 141794.387 0.000 0.000 0.000 7.797 
7.508 141384.619 0.000 0.000 0.000 7.808 
7.518 141749.863 0.000 0.000 0.000 7.818 
7.528 141578.291 0.000 0.000 0.000 7.829 
7.538 142576.909 0.000 0.000 0.000 7.839 
7.548 141059.586 0.000 0.000 0.000 7.849 
7.558 142077.562 0.000 0.000 0.000 7.860 
7.568 142441.706 0.000 0.000 0.000 7.870 
7.578 142503.994 0.000 0.000 0.000 7.881 
7.588 141956.336 0.000 0.000 0.000 7.891 
7.598 141005.285 0.000 0.000 0.000 7.902 
7.608 141693.103 0.000 0.000 0.000 7.912 
7.618 140275.634 0.000 0.000 0.000 7.922 
7.628 142552.615 0.000 0.000 0.000 7.933 
7.638 141363.249 0.000 0.000 0.000 7.943 
7.648 140124.989 0.000 0.000 0.000 7.954 
7.658 141595.415 0.000 0.000 0.000 7.964 
7.668 142842.612 0.000 0.000 0.000 7.974 
7.678 141276.890 0.000 0.000 0.000 7.985 
7.688 141834.229 0.000 0.000 0.000 7.995 
7.698 142573.403 0.000 0.000 0.000 8.006 
7.708 141701.761 0.000 0.000 0.000 8.016 
7.718 141285.123 0.000 0.000 0.000 8.026 
7.728 141082.596 0.000 0.000 0.000 8.037 
7.738 141240.075 0.000 0.000 0.000 8.047 
7.748 142784.180 0.000 0.000 0.000 8.058 
7.758 141241.887 0.000 0.000 0.000 8.068 
7.768 142123.579 0.000 0.000 0.000 8.078 
7.778 142560.561 0.000 0.000 0.000 8.089 
7.788 141405.565 0.000 0.000 0.000 8.099 
7.798 142205.203 0.000 0.000 0.000 8.110 
7.808 142954.301 0.000 0.000 0.000 8.120 
7.818 142400.735 0.000 0.000 0.000 8.131 
7.828 142124.559 0.000 0.000 0.000 8.141 
7.838 142552.688 0.000 0.000 0.000 8.151 
7.848 141559.319 0.000 0.000 0.000 8.162 
7.858 142356.203 0.000 0.000 0.000 8.172 
7.868 141163.986 0.000 0.000 0.000 8.183 
7.878 143424.756 0.000 0.000 0.000 8.193 
7.888 141984.615 0.000 0.000 0.000 8.203 
7.898 142828.550 0.000 0.000 0.000 8.214 
7.908 142170.434 0.000 0.000 0.000 8.224 
7.918 142007.212 0.000 0.000 0.000 8.235 
7.928 142386.763 0.000 0.000 0.000 8.245 
7.938 143180.900 0.000 0.000 0.000 8.255 
7.948 141758.244 0.000 0.000 0.000 8.266 
7.958 140313.881 0.000 0.000 0.000 8.276 
7.968 142845.071 0.000 0.000 0.000 8.287 
7.978 142357.703 0.000 0.000 0.000 8.297 
7.988 141998.487 0.000 0.000 0.000 8.308 
7.998 140935.276 0.000 0.000 0.000 8.318 
8.008 141844.436 0.000 0.000 0.000 8.328 
8.018 142004.923 0.000 0.000 0.000 8.339 
8.028 142102.802 0.000 0.000 0.000 8.349 
8.038 141573.061 0.000 0.000 0.000 8.360 
8.048 143121.196 0.000 0.000 0.000 8.370 
8.058 142340.248 0.000 0.000 0.000 8.380 
8.068 142616.295 0.000 0.000 0.000 8.391 
8.078 141976.992 0.000 0.000 0.000 8.401 
8.088 141001.393 0.000 0.000 0.000 8.412 
8.098 141759.361 0.000 0.000 0.000 8.422 
8.108 141367.502 0.000 0.000 0.000 8.432 
8.118 142188.335 0.000 0.000 0.000 8.443 
8.128 142349.261 0.000 0.000 0.000 8.453 
8.138 142691.081 0.000 0.000 0.000 8.464 
8.148 142241.454 0.000 0.000 0.000 8.474 
8.158 141928.376 0.000 0.000 0.000 8.484 
8.168 141857.000 0.000 0.000 0.000 8.495 
8.178 141075.437 0.000 0.000 0.000 8.505 
8.188 140169.324 0.000 0.000 0.000 8.516 
8.198 141285.726 0.000 0.000 0.000 8.526 
8.208 142830.516 0.000 0.000 0.000 8.537 
8.218 142801.231 0.000 0.000 0.000 8.547 
8.228 141204.316 0.000 0.000 0.000 8.557 
8.238 140853.245 0.000 0.000 0.000 8.568 
8.248 141118.405 0.000 0.000 0.000 8.578 
8.258 140812.170 0.000 0.000 0.000 8.589 
8.268 142101.875 0.000 0.000 0.000 8.599 
8.278 142686.315 0.000 0.000 0.000 8.609 
8.288 141426.789 0.000 0.000 0.000 8.620 
8.298 141895.152 0.000 0.000 0.000 8.630 
8.308 141069.632 0.000 0.000 0.000 8.641 
8.318 140717.241 0.000 0.000 0.000 8.651 
8.328 141684.555 0.000 0.000 0.000 8.661 
8.338 142932.200 0.000 0.000 0.000 8.672 
8.348 141195.081 0.000 0.000 0.000 8.682 
8.358 141248.442 0.000 0.000 0.000 8.693 
8.368 142293.226 0.000 0.000 0.000 8.703 
8.378 140715.910 0.000 0.000 0.000 8.714 
8.388 140774.897 0.000 0.000 0.000 8.724 
8.398 140858.208 0.000 0.000 0.000 8.734 
8.408 141094.070 0.000 0.000 0.000 8.745 
8.418 141028.489 0.000 0.000 0.000 8.755 
8.428 142011.807 0.000 0.000 0.000 8.766 
8.438 139279.619 0.000 0.000 0.000 8.776 
8.448 140215.739 0.000 0.000 0.000 8.786 
8.458 140563.403 0.000 0.000 0.000 8.797 
8.468 141445.347 0.000 0.000 0.000 8.807 
8.478 141881.016 0.000 0.000 0.000 8.818 
8.488 140970.405 0.000 0.000 0.000 8.828 
8.498 142236.312 0.000 0.000 0.000 8.838 
8.509 141481.928 0.000 0.000 0.000 8.849 
8.519 141288.877 0.000 0.000 0.000 8.859 
8.529 141305.257 0.000 0.000 0.000 8.870 
8.539 139940.155 0.000 0.000 0.000 8.880 
8.549 141572.577 0.000 0.000 0.000 8.890 
8.559 141429.880 0.000 0.000 0.000 8.901 
8.569 142509.085 0.000 0.000 0.000 8.911 
8.579 141898.949 0.000 0.000 0.000 8.922 
8.589 141421.225 0.000 0.000 0.000 8.932 
8.599 140756.084 0.000 0.000 0.000 8.943 
8.609 142125.299 0.000 0.000 0.000 8.953 
8.619 140351.862 0.000 0.000 0.000 8.963 
8.629 141641.725 0.000 0.000 0.000 8.974 
8.639 140526.273 0.000 0.000 0.000 8.984 
8.649 142234.969 0.000 0.000 0.000 8.995 
8.659 141137.556 0.000 0.000 0.000 9.005 
8.669 141485.399 0.000 0.000 0.000 9.015 
8.679 140335.164 0.000 0.000 0.000 9.026 
8.689 141316.574 0.000 0.000 0.000 9.036 
8.699 140205.510 0.000 0.000 0.000 9.047 
8.709 142773.088 0.000 0.000 0.000 9.057 
8.719 141597.595 0.000 0.000 0.000 9.067 
8.729 141039.008 0.000 0.000 0.000 9.078 
8.739 141922.828 0.000 0.000 0.000 9.088 
8.749 142083.578 0.000 0.000 0.000 9.099 
8.759 141059.530 0.000 0.000 0.000 9.109 
8.769 141533.361 0.000 0.000 0.000 9.120 
8.779 141888.878 0.000 0.000 0.000 9.130 
8.789 141218.355 0.000 0.000 0.000 9.140 
8.799 140727.371 0.000 0.000 0.000 9.151 
8.809 142029.887 0.000 0.000 0.000 9.161 
8.819 142634.522 0.000 0.000 0.000 9.172 
8.829 139615.998 0.000 0.000 0.000 9.182 
8.839 140976.030 0.000 0.000 0.000 9.192 
8.849 141310.014 0.000 0.000 0.000 9.203 
8.859 139971.403 0.000 0.000 0.000 9.213 
8.869 141628.170 0.000 0.000 0.000 9.224 
8.879 139134.826 0.000 0.000 0.000 9.234 
8.889 139941.866 0.000 0.000 0.000 9.244 
8.899 140467.844 0.000 0.000 0.000 9.255 
8.909 140175.119 0.000 0.000 0.000 9.265 
8.919 140810.012 0.000 0.000 0.000 9.276 
8.929 141439.256 0.000 0.000 0.000 9.286 
8.939 140025.392 0.000 0.000 0.000 9.296 
8.949 140373.044 0.000 0.000 0.000 9.307 
8.959 141133.952 0.000 0.000 0.000 9.317 
8.969 140420.915 0.000 0.000 0.000 9.328 
8.979 141990.055 0.000 0.000 0.000 9.338 
8.989 141854.939 0.000 0.000 0.000 9.349 
8.999 142091.368 0.000 0.000 0.000 9.359 
9.009 141003.307 0.000 0.000 0.000 9.369 
9.019 141084.038 0.000 0.000 0.000 9.380 
9.029 141334.064 0.000 0.000 0.000 9.390 
9.039 139687.171 0.000 0.000 0.000 9.401 
9.049 139503.930 0.000 0.000 0.000 9.411 
9.059 141060.766 0.000 0.000 0.000 9.421 
9.069 141602.760 0.000 0.000 0.000 9.432 
9.079 140698.659 0.000 0.000 0.000 9.442 
9.089 141474.115 0.000 0.000 0.000 9.453 
9.099 141037.832 0.000 0.000 0.000 9.463 
9.109 140442.138 0.000 0.000 0.000 9.473 
9.119 139993.313 0.000 0.000 0.000 9.484 
9.129 138825.020 0.000 0.000 0.000 9.494 
9.139 139986.205 0.000 0.000 0.000 9.505 
9.149 141296.151 0.000 0.000 0.000 9.515 
9.159 141125.304 0.000 0.000 0.000 9.526 
9.169 141135.344 0.000 0.000 0.000 9.536 
9.179 142351.817 0.000 0.000 0.000 9.546 
9.189 140988.853 0.000 0.000 0.000 9.557 
9.199 142332.957 0.000 0.000 0.000 9.567 
9.209 141722.265 0.000 0.000 0.000 9.578 
9.219 140890.136 0.000 0.000 0.000 9.588 
9.229 140981.648 0.000 0.000 0.000 9.598 
9.239 141893.210 0.000 0.000 0.000 9.609 
9.249 141226.674 0.000 0.000 0.000 9.619 
9.259 141348.523 0.000 0.000 0.000 9.630 
9.269 140806.529 0.000 0.000 0.000 9.640 
9.279 140695.430 0.000 0.000 0.000 9.650 
9.289 140503.108 0.000 0.000 0.000 9.661 
9.299 141075.507 0.000 0.000 0.000 9.671 
9.309 141688.833 0.000 0.000 0.000 9.682 
9.319 140943.194 0.000 0.000 0.000 9.692 
9.329 141007.000 0.000 0.000 0.000 9.703 
9.339 140790.831 0.000 0.000 0.000 9.713 
9.349 140620.908 0.000 0.000 0.000 9.723 
9.359 141052.714 0.000 0.000 0.000 9.734 
9.369 140722.007 0.000 0.000 0.000 9.744 
9.379 141376.035 0.000 0.000 0.000 9.755 
9.389 140710.621 0.000 0.000 0.000 9.765 
9.399 140542.051 0.000 0.000 0.000 9.775 
9.409 139711.295 0.000 0.000 0.000 9.786 
9.419 140413.096 0.000 0.000 0.000 9.796 
9.429 139755.731 0.000 0.000 0.000 9.807 
9.439 141139.466 0.000 0.000 0.000 9.817 
9.449 139311.090 0.000 0.000 0.000 9.827 
9.459 141361.961 0.000 0.000 0.000 9.838 
9.469 140113.079 0.000 0.000 0.000 9.848 
9.479 140291.523 0.000 0.000 0.000 9.859 
9.489 139518.578 0.000 0.000 0.000 9.869 
9.499 140450.568 0.000 0.000 0.000 9.879 
9.510 139918.260 0.000 0.000 0.000 9.890 
9.520 140662.629 0.000 0.000 0.000 9.900 
9.530 141012.807 0.000 0.000 0.000 9.911 
9.540 139592.022 0.000 0.000 0.000 9.921 
9.550 139474.932 0.000 0.000 0.000 9.932 
9.560 142146.530 0.000 0.000 0.000 9.942 
9.570 140581.699 0.000 0.000 0.000 9.952 
9.580 140830.415 0.000 0.000 0.000 9.963 
9.590 138681.828 0.000 0.000 0.000 9.973 
9.600 140712.131 0.000 0.000 0.000 9.984 
9.610 140562.347 0.000 0.000 0.000 9.994 
9.620 139993.571 0.000 0.000 0.000 10.004 
9.630 141591.862 0.000 0.000 0.000 10.015 
9.640 141320.958 0.000 0.000 0.000 10.025 
9.650 140734.113 0.000 0.000 0.000 10.036 
9.660 138851.369 0.000 0.000 0.000 10.046 
9.670 141363.558 0.000 0.000 0.000 10.056 
9.680 139269.385 0.000 0.000 0.000 10.067 
9.690 143023.447 0.000 0.000 0.000 10.077 
9.700 140003.810 0.000 0.000 0.000 10.088 
9.710 140165.780 0.000 0.000 0.000 10.098 
9.720 140785.850 0.000 0.000 0.000 10.109 
9.730 140881.756 0.000 0.000 0.000 10.119 
9.740 139428.884 0.000 0.000 0.000 10.129 
9.750 139074.844 0.000 0.000 0.000 10.140 
9.760 140014.847 0.000 0.000 0.000 10.150 
9.770 140230.512 0.000 0.000 0.000 10.161 
9.780 140243.922 0.000 0.000 0.000 10.171 
9.790 140842.315 0.000 0.000 0.000 10.181 
9.800 140793.090 0.000 0.000 0.000 10.192 
9.810 140579.919 0.000 0.000 0.000 10.202 
9.820 139333.106 0.000 0.000 0.000 10.213 
9.830 141104.479 0.000 0.000 0.000 10.223 
9.840 139013.722 0.000 0.000 0.000 10.233 
9.850 140806.769 0.000 0.000 0.000 10.244 
9.860 140543.624 0.000 0.000 0.000 10.254 
9.870 141045.116 0.000 0.000 0.000 10.265 
9.880 140053.950 0.000 0.000 0.000 10.275 
9.890 139677.885 0.000 0.000 0.000 10.285 
9.900 140463.786 0.000 0.000 0.000 10.296 
9.910 139138.503 0.000 0.000 0.000 10.306 
9.920 140873.189 0.000 0.000 0.000 10.317 
9.930 140481.538 0.000 0.000 0.000 10.327 
9.940 140389.299 0.000 0.000 0.000 10.338 
9.950 139518.958 0.000 0.000 0.000 10.348 
9.960 140753.679 0.000 0.000 0.000 10.358 
9.970 141018.254 0.000 0.000 0.000 10.369 
9.980 138750.971 0.000 0.000 0.000 10.379 
9.990 140990.514 0.000 0.000 0.000 10.390 
10.000 139829.836 0.000 0.000 0.000 10.400 
"Specimen",2
"Specimen name:",""
"Width:",6.350000,"mm"
"Thickness:",1.524000,"mm"
"Length:",12.000000,"mm"
"Diameter:",5.000000,"um"
"Inner diameter:",0.500000,"mm"
"Outer diameter:",1.000000,"mm"
"Wall thickness:",0.500000,"mm"
"Area:",19.634954,"um*um"
"Linear density:",1.000000,"den"
"Sled weight:",9.806650,"N"
"Loading span:",0.000000,"mm"
"Support span:",1.000000,"mm"
"Span ratio:","2"
"Fixture type:","3-point"
"Comment:",""
"Included"
"Time sec","Stress Pa","Cycle Count","Total Cycle Count","Repetitions Count","Strain [Exten.] %"
0.000 669.614 0.000 0.000 0.000 0.000 
0.010 181.493 0.000 0.000 0.000 0.010 
0.020 798.733 0.000 0.000 0.000 0.021 
0.030 945.513 0.000 0.000 0.000 0.031 
0.040 1049.094 0.000 0.000 0.000 0.042 
0.050 3508.444 0.000 0.000 0.000 0.052 
0.060 1927.764 0.000 0.000 0.000 0.062 
0.070 2530.968 0.000 0.000 0.000 0.073 
0.080 3778.241 0.000 0.000 0.000 0.083 
0.090 3340.102 0.000 0.000 0.000 0.094 
0.100 5430.470 0.000 0.000 0.000 0.104 
0.110 5229.619 0.000 0.000 0.000 0.115 
0.120 4921.290 0.000 0.000 0.000 0.125 
0.130 5088.004 0.000 0.000 0.000 0.135 
0.140 4981.702 0.000 0.000 0.000 0.146 
0.150 7355.533 0.000 0.000 0.000 0.156 
0.160 9224.589 0.000 0.000 0.000 0.167 
0.170 9011.052 0.000 0.000 0.000 0.177 
0.180 7576.531 0.000 0.000 0.000 0.187 
0.190 9680.145 0.000 0.000 0.000 0.198 
0.200 8278.534 0.000 0.000 0.000 0.208 
0.210 8938.997 0.000 0.000 0.000 0.219 
0.220 10051.894 0.000 0.000 0.000 0.229 
0.230 10245.995 0.000 0.000 0.000 0.239 
0.240 11034.046 0.000 0.000 0.000 0.250 
0.250 10607.204 0.000 0.000 0.000 0.260 
0.260 12214.772 0.000 0.000 0.000 0.271 
0.270 11736.231 0.000 0.000 0.000 0.281 
0.280 12431.104 0.000 0.000 0.000 0.291 
0.290 13685.273 0.000 0.000 0.000 0.302 
0.300 14077.648 0.000 0.000 0.000 0.312 
0.310 14941.464 0.000 0.000 0.000 0.323 
0.320 16019.763 0.000 0.000 0.000 0.333 
0.330 15164.152 0.000 0.000 0.000 0.344 
0.340 16019.964 0.000 0.000 0.000 0.354 
0.350 16593.694 0.000 0.000 0.000 0.364 
0.360 16475.815 0.000 0.000 0.000 0.375 
0.370 18357.330 0.000 0.000 0.000 0.385 
0.380 17789.052 0.000 0.000 0.000 0.396 
0.390 17845.958 0.000 0.000 0.000 0.406 
0.400 19812.152 0.000 0.000 0.000 0.416 
0.410 19559.249 0.000 0.000 0.000 0.427 
0.420 20857.402 0.000 0.000 0.000 0.437 
0.430 20384.499 0.000 0.000 0.000 0.448 
0.440 20025.539 0.000 0.000 0.000 0.458 
0.450 21902.084 0.000 0.000 0.000 0.468 
0.460 22285.526 0.000 0.000 0.000 0.479 
0.470 23001.020 0.000 0.000 0.000 0.489 
0.480 22627.020 0.000 0.000 0.000 0.500 
0.490 22272.453 0.000 0.000 0.000 0.510 
0.501 23285.428 0.000 0.000 0.000 0.521 
0.511 25599.446 0.000 0.000 0.000 0.531 
0.521 25094.605 0.000 0.000 0.000 0.541 
0.531 24326.720 0.000 0.000 0.000 0.552 
0.541 25467.051 0.000 0.000 0.000 0.562 
0.551 26849.641 0.000 0.000 0.000 0.573 
0.561 27858.671 0.000 0.000 0.000 0.583 
0.571 27262.979 0.000 0.000 0.000 0.593 
0.581 27692.935 0.000 0.000 0.000 0.604 
0.591 28215.886 0.000 0.000 0.000 0.614 
0.601 28670.773 0.000 0.000 0.000 0.625 
0.611 28284.481 0.000 0.000 0.000 0.635 
0.621 28966.907 0.000 0.000 0.000 0.645 
0.631 31300.984 0.000 0.000 0.000 0.656 
0.641 30892.542 0.000 0.000 0.000 0.666 
0.651 31554.617 0.000 0.000 0.000 0.677 
0.661 31268.329 0.000 0.000 0.000 0.687 
0.671 31838.308 0.000 0.000 0.000 0.697 
0.681 32409.345 0.000 0.000 0.000 0.708 
0.691 32833.542 0.000 0.000 0.000 0.718 
0.701 34848.415 0.000 0.000 0.000 0.729 
0.711 33662.784 0.000 0.000 0.000 0.739 
0.721 34833.103 0.000 0.000 0.000 0.750 
0.731 36115.196 0.000 0.000 0.000 0.760 
0.741 36330.657 0.000 0.000 0.000 0.770 
0.751 36811.893 0.000 0.000 0.000 0.781 
0.761 36652.574 0.000 0.000 0.000 0.791 
0.771 37371.168 0.000 0.000 0.000 0.802 
0.781 37679.040 0.000 0.000 0.000 0.812 
0.791 38295.795 0.000 0.000 0.000 0.822 
0.801 38753.668 0.000 0.000 0.000 0.833 
0.811 39311.725 0.000 0.000 0.000 0.843 
0.821 40954.464 0.000 0.000 0.000 0.854 
0.831 39586.201 0.000 0.000 0.000 0.864 
0.841 40805.678 0.000 0.000 0.000 0.874 
0.851 41352.478 0.000 0.000 0.000 0.885 
0.861 42037.015 0.000 0.000 0.000 0.895 
0.871 42520.638 0.000 0.000 0.000 0.906 
0.881 42701.056 0.000 0.000 0.000 0.916 
0.891 42817.792 0.000 0.000 0.000 0.927 
0.901 43599.474 0.000 0.000 0.000 0.937 
0.911 43592.851 0.000 0.000 0.000 0.947 
0.921 44315.312 0.000 0.000 0.000 0.958 
0.931 45603.586 0.000 0.000 0.000 0.968 
0.941 44625.265 0.000 0.000 0.000 0.979 
0.951 47031.625 0.000 0.000 0.000 0.989 
0.961 46777.442 0.000 0.000 0.000 0.999 
0.971 47372.364 0.000 0.000 0.000 1.010 
0.981 49050.997 0.000 0.000 0.000 1.020 
0.991 48903.249 0.000 0.000 0.000 1.031 
1.001 48866.892 0.000 0.000 0.000 1.041 
1.011 48616.923 0.000 0.000 0.000 1.051 
1.021 47322.909 0.000 0.000 0.000 1.062 
1.031 48613.403 0.000 0.000 0.000 1.072 
1.041 49954.908 0.000 0.000 0.000 1.083 
1.051 52088.739 0.000 0.000 0.000 1.093 
1.061 52222.416 0.000 0.000 0.000 1.104 
1.071 50796.251 0.000 0.000 0.000 1.114 
1.081 52013.273 0.000 0.000 0.000 1.124 
1.091 53583.866 0.000 0.000 0.000 1.135 
1.101 53185.046 0.000 0.000 0.000 1.145 
1.111 53257.426 0.000 0.000 0.000 1.156 
1.121 55835.573 0.000 0.000 0.000 1.166 
1.131 55048.867 0.000 0.000 0.000 1.176 
1.141 56503.852 0.000 0.000 0.000 1.187 
1.151 55957.729 0.000 0.000 0.000 1.197 
1.161 55965.698 0.000 0.000 0.000 1.208 
1.171 56939.400 0.000 0.000 0.000 1.218 
1.181 57061.807 0.000 0.000 0.000 1.228 
1.191 57863.971 0.000 0.000 0.000 1.239 
1.201 59026.097 0.000 0.000 0.000 1.249 
1.211 58320.100 0.000 0.000 0.000 1.260 
1.221 59363.905 0.000 0.000 0.000 1.270 
1.231 59607.549 0.000 0.000 0.000 1.280 
1.241 58840.819 0.000 0.000 0.000 1.291 
1.251 59988.463 0.000 0.000 0.000 1.301 
1.261 62485.802 0.000 0.000 0.000 1.312 
1.271 62078.229 0.000 0.000 0.000 1.322 
1.281 61297.010 0.000 0.000 0.000 1.333 
1.291 61516.946 0.000 0.000 0.000 1.343 
1.301 63072.531 0.000 0.000 0.000 1.353 
1.311 65719.778 0.000 0.000 0.000 1.364 
1.321 64298.694 0.000 0.000 0.000 1.374 
1.331 64838.470 0.000 0.000 0.000 1.385 
1.341 64793.004 0.000 0.000 0.000 1.395 
1.351 66041.493 0.000 0.000 0.000 1.405 
1.361 65912.651 0.000 0.000 0.000 1.416 
1.371 67058.978 0.000 0.000 0.000 1.426 
1.381 68407.339 0.000 0.000 0.000 1.437 
1.391 67308.516 0.000 0.000 0.000 1.447 
1.401 67578.408 0.000 0.000 0.000 1.457 
1.411 69062.085 0.000 0.000 0.000 1.468 
1.421 69147.570 0.000 0.000 0.000 1.478 
1.431 70389.871 0.000 0.000 0.000 1.489 
1.441 69395.329 0.000 0.000 0.000 1.499 
1.451 69371.639 0.000 0.000 0.000 1.510 
1.461 70016.737 0.000 0.000 0.000 1.520 
1.471 71145.622 0.000 0.000 0.000 1.530 
1.481 73086.683 0.000 0.000 0.000 1.541 
1.491 73416.729 0.000 0.000 0.000 1.551 
1.502 72841.584 0.000 0.000 0.000 1.562 
1.512 72943.124 0.000 0.000 0.000 1.572 
1.522 74065.514 0.000 0.000 0.000 1.582 
1.532 73149.805 0.000 0.000 0.000 1.593 
1.542 74188.047 0.000 0.000 0.000 1.603 
1.552 76679.536 0.000 0.000 0.000 1.614 
1.562 77809.693 0.000 0.000 0.000 1.624 
1.572 76137.429 0.000 0.000 0.000 1.634 
1.582 75978.679 0.000 0.000 0.000 1.645 
1.592 77267.308 0.000 0.000 0.000 1.655 
1.602 78734.635 0.000 0.000 0.000 1.666 
1.612 77553.538 0.000 0.000 0.000 1.676 
1.622 79905.991 0.000 0.000 0.000 1.686 
1.632 80637.378 0.000 0.000 0.000 1.697 
1.642 80231.611 0.000 0.000 0.000 1.707 
1.652 81407.482 0.000 0.000 0.000 1.718 
1.662 79911.262 0.000 0.000 0.000 1.728 
1.672 80860.444 0.000 0.000 0.000 1.739 
1.682 81502.741 0.000 0.000 0.000 1.749 
1.692 82623.770 0.000 0.000 0.000 1.759 
1.702 82688.000 0.000 0.000 0.000 1.770 
1.712 82339.199 0.000 0.000 0.000 1.780 
1.722 83278.334 0.000 0.000 0.000 1.791 
1.732 82911.539 0.000 0.000 0.000 1.801 
1.742 84766.655 0.000 0.000 0.000 1.811 
1.752 84459.492 0.000 0.000 0.000 1.822 
1.762 84774.506 0.000 0.000 0.000 1.832 
1.772 86340.826 0.000 0.000 0.000 1.843 
1.782 86336.908 0.000 0.000 0.000 1.853 
1.792 86438.782 0.000 0.000 0.000 1.863 
1.802 88671.860 0.000 0.000 0.000 1.874 
1.812 89257.809 0.000 0.000 0.000 1.884 
1.822 87758.586 0.000 0.000 0.000 1.895 
1.832 88197.710 0.000 0.000 0.000 1.905 
1.842 89402.595 0.000 0.000 0.000 1.916 
1.852 89271.606 0.000 0.000 0.000 1.926 
1.862 89929.231 0.000 0.000 0.000 1.936 
1.872 90282.174 0.000 0.000 0.000 1.947 
1.882 91674.930 0.000 0.000 0.000 1.957 
1.892 91340.481 0.000 0.000 0.000 1.968 
1.902 92631.607 0.000 0.000 0.000 1.978 
1.912 92781.505 0.000 0.000 0.000 1.988 
1.922 92224.328 0.000 0.000 0.000 1.999 
1.932 93253.856 0.000 0.000 0.000 2.009 
1.942 95456.991 0.000 0.000 0.000 2.020 
1.952 95460.246 0.000 0.000 0.000 2.030 
1.962 95098.872 0.000 0.000 0.000 2.040 
1.972 96559.222 0.000 0.000 0.000 2.051 
1.982 97759.849 0.000 0.000 0.000 2.061 
1.992 96031.056 0.000 0.000 0.000 2.072 
2.002 98433.717 0.000 0.000 0.000 2.082 
2.012 98248.346 0.000 0.000 0.000 2.092 
2.022 96964.970 0.000 0.000 0.000 2.103 
2.032 99221.295 0.000 0.000 0.000 2.113 
2.042 101018.812 0.000 0.000 0.000 2.124 
2.052 99630.200 0.000 0.000 0.000 2.134 
2.062 100103.702 0.000 0.000 0.000 2.145 
2.072 100753.002 0.000 0.000 0.000 2.155 
2.082 102143.951 0.000 0.000 0.000 2.165 
2.092 102449.213 0.000 0.000 0.000 2.176 
2.102 102311.976 0.000 0.000 0.000 2.186 
2.112 102155.510 0.000 0.000 0.000 2.197 
2.122 103645.505 0.000 0.000 0.000 2.207 
2.132 103280.269 0.000 0.000 0.000 2.217 
2.142 103680.507 0.000 0.000 0.000 2.228 
2.152 104630.960 0.000 0.000 0.000 2.238 
2.162 104606.768 0.000 0.000 0.000 2.249 
2.172 106224.045 0.000 0.000 0.000 2.259 
2.182 106409.402 0.000 0.000 0.000 2.269 
2.192 107727.769 0.000 0.000 0.000 2.280 
2.202 107874.743 0.000 0.000 0.000 2.290 
2.212 106709.526 0.000 0.000 0.000 2.301 
2.222 109368.395 0.000 0.000 0.000 2.311 
2.232 109186.605 0.000 0.000 0.000 2.322 
2.242 109220.802 0.000 0.000 0.000 2.332 
2.252 108649.456 0.000 0.000 0.000 2.342 
2.262 110870.745 0.000 0.000 0.000 2.353 
2.272 110357.692 0.000 0.000 0.000 2.363 
2.282 111809.401 0.000 0.000 0.000 2.374 
2.292 111350.500 0.000 0.000 0.000 2.384 
2.302 111493.243 0.000 0.000 0.000 2.394 
2.312 111731.074 0.000 0.000 0.000 2.405 
2.322 114023.764 0.000 0.000 0.000 2.415 
2.332 112233.267 0.000 0.000 0.000 2.426 
2.342 114958.836 0.000 0.000 0.000 2.436 
2.352 115004.000 0.000 0.000 0.000 2.446 
2.362 115391.235 0.000 0.000 0.000 2.457 
2.372 117107.706 0.000 0.000 0.000 2.467 
2.382 115935.629 0.000 0.000 0.000 2.478 
2.392 117734.880 0.000 0.000 0.000 2.488 
2.402 116887.080 0.000 0.000 0.000 2.498 
2.412 117803.109 0.000 0.000 0.000 2.509 
2.422 117149.025 0.000 0.000 0.000 2.519 
2.432 118873.307 0.000 0.000 0.000 2.530 
2.442 119059.490 0.000 0.000 0.000 2.540 
2.452 120185.747 0.000 0.000 0.000 2.551 
2.462 120539.026 0.000 0.000 0.000 2.561 
2.472 121063.992 0.000 0.000 0.000 2.571 
2.482 121466.159 0.000 0.000 0.000 2.582 
2.492 120113.131 0.000 0.000 0.000 2.592 
2.503 122802.738 0.000 0.000 0.000 2.603 
2.513 121885.455 0.000 0.000 0.000 2.613 
2.523 121077.972 0.000 0.000 0.000 2.623 
2.533 122607.586 0.000 0.000 0.000 2.634 
2.543 124216.304 0.000 0.000 0.000 2.644 
2.553 123910.915 0.000 0.000 0.000 2.655 
2.563 124025.257 0.000 0.000 0.000 2.665 
2.573 123733.000 0.000 0.000 0.000 2.675 
2.583 126442.389 0.000 0.000 0.000 2.686 
2.593 125773.034 0.000 0.000 0.000 2.696 
2.603 126474.086 0.000 0.000 0.000 2.707 
2.613 127435.150 0.000 0.000 0.000 2.717 
2.623 128622.315 0.000 0.000 0.000 2.728 
2.633 127563.155 0.000 0.000 0.000 2.738 
2.643 128308.705 0.000 0.000 0.000 2.748 
2.653 129284.637 0.000 0.000 0.000 2.759 
2.663 129389.538 0.000 0.000 0.000 2.769 
2.673 129366.983 0.000 0.000 0.000 2.780 
2.683 130726.739 0.000 0.000 0.000 2.790 
2.693 132012.713 0.000 0.000 0.000 2.800 
2.703 131621.516 0.000 0.000 0.000 2.811 
2.713 132028.088 0.000 0.000 0.000 2.821 
2.723 132657.262 0.000 0.000 0.000 2.832 
2.733 134059.384 0.000 0.000 0.000 2.842 
2.743 131786.446 0.000 0.000 0.000 2.852 
2.753 134888.909 0.000 0.000 0.000 2.863 
2.763 134806.891 0.000 0.000 0.000 2.873 
2.773 135430.225 0.000 0.000 0.000 2.884 
2.783 136874.262 0.000 0.000 0.000 2.894 
2.793 134384.613 0.000 0.000 0.000 2.905 
2.803 136279.827 0.000 0.000 0.000 2.915 
2.813 136647.855 0.000 0.000 0.000 2.925 
2.823 137440.844 0.000 0.000 0.000 2.936 
2.833 138736.991 0.000 0.000 0.000 2.946 
2.843 139208.554 0.000 0.000 0.000 2.957 
2.853 139715.820 0.000 0.000 0.000 2.967 
2.863 139412.227 0.000 0.000 0.000 2.977 
2.873 141096.223 0.000 0.000 0.000 2.988 
2.883 140594.968 0.000 0.000 0.000 2.998 
2.893 140839.054 0.000 0.000 0.000 3.009 
2.903 141040.467 0.000 0.000 0.000 3.019 
2.913 141553.484 0.000 0.000 0.000 3.029 
2.923 141850.382 0.000 0.000 0.000 3.040 
2.933 142316.905 0.000 0.000 0.000 3.050 
2.943 142832.460 0.000 0.000 0.000 3.061 
2.953 144189.340 0.000 0.000 0.000 3.071 
2.963 144720.436 0.000 0.000 0.000 3.081 
2.973 146272.134 0.000 0.000 0.000 3.092 
2.983 145975.906 0.000 0.000 0.000 3.102 
2.993 146064.432 0.000 0.000 0.000 3.113 
3.003 146180.715 0.000 0.000 0.000 3.123 
3.013 145042.187 0.000 0.000 0.000 3.134 
3.023 146101.791 0.000 0.000 0.000 3.144 
3.033 144899.121 0.000 0.000 0.000 3.154 
3.043 144514.766 0.000 0.000 0.000 3.165 
3.053 146679.540 0.000 0.000 0.000 3.175 
3.063 144669.468 0.000 0.000 0.000 3.186 
3.073 145106.363 0.000 0.000 0.000 3.196 
3.083 145151.595 0.000 0.000 0.000 3.206 
3.093 144567.030 0.000 0.000 0.000 3.217 
3.103 143560.092 0.000 0.000 0.000 3.227 
3.113 144307.242 0.000 0.000 0.000 3.238 
3.123 144609.528 0.000 0.000 0.000 3.248 
3.133 143342.191 0.000 0.000 0.000 3.258 
3.143 143202.975 0.000 0.000 0.000 3.269 
3.153 142897.651 0.000 0.000 0.000 3.279 
3.163 144069.099 0.000 0.000 0.000 3.290 
3.173 143141.031 0.000 0.000 0.000 3.300 
3.183 143634.336 0.000 0.000 0.000 3.311 
3.193 144286.867 0.000 0.000 0.000 3.321 
3.203 143856.791 0.000 0.000 0.000 3.331 
3.213 144552.043 0.000 0.000 0.000 3.342 
3.223 142508.413 0.000 0.000 0.000 3.352 
3.233 142320.240 0.000 0.000 0.000 3.363 
3.243 142449.511 0.000 0.000 0.000 3.373 
3.253 142643.190 0.000 0.000 0.000 3.383 
3.263 143233.982 0.000 0.000 0.000 3.394 
3.273 142047.482 0.000 0.000 0.000 3.404 
3.283 141636.666 0.000 0.000 0.000 3.415 
3.293 143017.209 0.000 0.000 0.000 3.425 
3.303 141758.208 0.000 0.000 0.000 3.435 
3.313 141591.499 0.000 0.000 0.000 3.446 
3.323 143007.201 0.000 0.000 0.000 3.456 
3.333 142759.853 0.000 0.000 0.000 3.467 
3.343 141846.688 0.000 0.000 0.000 3.477 
3.353 141874.030 0.000 0.000 0.000 3.487 
3.363 141413.577 0.000 0.000 0.000 3.498 
3.373 142295.583 0.000 0.000 0.000 3.508 
3.383 142243.014 0.000 0.000 0.000 3.519 
3.393 142034.095 0.000 0.000 0.000 3.529 
3.403 142324.319 0.000 0.000 0.000 3.540 
3.413 142086.053 0.000 0.000 0.000 3.550 
3.423 141762.119 0.000 0.000 0.000 3.560 
3.433 142248.201 0.000 0.000 0.000 3.571 
3.443 142450.292 0.000 0.000 0.000 3.581 
3.453 141612.867 0.000 0.000 0.000 3.592 
3.463 141785.435 0.000 0.000 0.000 3.602 
3.473 142566.011 0.000 0.000 0.000 3.612 
3.483 142305.131 0.000 0.000 0.000 3.623 
3.493 142240.732 0.000 0.000 0.000 3.633 
3.504 143400.276 0.000 0.000 0.000 3.644 
3.514 141966.030 0.000 0.000 0.000 3.654 
3.524 141755.671 0.000 0.000 0.000 3.664 
3.534 142129.408 0.000 0.000 0.000 3.675 
3.544 142142.130 0.000 0.000 0.000 3.685 
3.554 143315.458 0.000 0.000 0.000 3.696 
3.564 141108.051 0.000 0.000 0.000 3.706 
3.574 143168.170 0.000 0.000 0.000 3.717 
3.584 142242.258 0.000 0.000 0.000 3.727 
3.594 141834.179 0.000 0.000 0.000 3.737 
3.604 141959.925 0.000 0.000 0.000 3.748 
3.614 143079.154 0.000 0.000 0.000 3.758 
3.624 141735.470 0.000 0.000 0.000 3.769 
3.634 142039.060 0.000 0.000 0.000 3.779 
3.644 142690.758 0.000 0.000 0.000 3.789 
3.654 142143.368 0.000 0.000 0.000 3.800 
3.664 142312.963 0.000 0.000 0.000 3.810 
3.674 142658.146 0.000 0.000 0.000 3.821 
3.684 142844.768 0.000 0.000 0.000 3.831 
3.694 142047.832 0.000 0.000 0.000 3.841 
3.704 143174.369 0.000 0.000 0.000 3.852 
3.714 142650.001 0.000 0.000 0.000 3.862 
3.724 141581.737 0.000 0.000 0.000 3.873 
3.734 140537.188 0.000 0.000 0.000 3.883 
3.744 142750.583 0.000 0.000 0.000 3.893 
3.754 142332.010 0.000 0.000 0.000 3.904 
3.764 142231.716 0.000 0.000 0.000 3.914 
3.774 142772.635 0.000 0.000 0.000 3.925 
3.784 142182.389 0.000 0.000 0.000 3.935 
3.794 143641.164 0.000 0.000 0.000 3.946 
3.804 142776.340 0.000 0.000 0.000 3.956 
3.814 142460.733 0.000 0.000 0.000 3.966 
3.824 141394.738 0.000 0.000 0.000 3.977 
3.834 142871.292 0.000 0.000 0.000 3.987 
3.844 143286.383 0.000 0.000 0.000 3.998 
3.854 142546.749 0.000 0.000 0.000 4.008 
3.864 142168.928 0.000 0.000 0.000 4.018 
3.874 141779.779 0.000 0.000 0.000 4.029 
3.884 141777.178 0.000 0.000 0.000 4.039 
3.894 142472.244 0.000 0.000 0.000 4.050 
3.904 142928.247 0.000 0.000 0.000 4.060 
3.914 141618.719 0.000 0.000 0.000 4.070 
3.924 143874.154 0.000 0.000 0.000 4.081 
3.934 142591.567 0.000 0.000 0.000 4.091 
3.944 142346.082 0.000 0.000 0.000 4.102 
3.954 142311.468 0.000 0.000 0.000 4.112 
3.964 142365.096 0.000 0.000 0.000 4.123 
3.974 141848.217 0.000 0.000 0.000 4.133 
3.984 142453.373 0.000 0.000 0.000 4.143 
3.994 143305.965 0.000 0.000 0.000 4.154 
4.004 141835.568 0.000 0.000 0.000 4.164 
4.014 143093.976 0.000 0.000 0.000 4.175 
4.024 143023.079 0.000 0.000 0.000 4.185 
4.034 142994.217 0.000 0.000 0.000 4.195 
4.044 142970.311 0.000 0.000 0.000 4.206 
4.054 143219.933 0.000 0.000 0.000 4.216 
4.064 142522.174 0.000 0.000 0.000 4.227 
4.074 144603.388 0.000 0.000 0.000 4.237 
4.084 142281.726 0.000 0.000 0.000 4.247 
4.094 141694.822 0.000 0.000 0.000 4.258 
4.104 141344.825 0.000 0.000 0.000 4.268 
4.114 142998.158 0.000 0.000 0.000 4.279 
4.124 141614.643 0.000 0.000 0.000 4.289 
4.134 142329.299 0.000 0.000 0.000 4.299 
4.144 142145.353 0.000 0.000 0.000 4.310 
4.154 142165.282 0.000 0.000 0.000 4.320 
4.164 143038.102 0.000 0.000 0.000 4.331 
4.174 142032.416 0.000 0.000 0.000 4.341 
4.184 143104.364 0.000 0.000 0.000 4.352 
4.194 144078.045 0.000 0.000 0.000 4.362 
4.204 141812.279 0.000 0.000 0.000 4.372 
4.214 142892.209 0.000 0.000 0.000 4.383 
4.224 140777.730 0.000 0.000 0.000 4.393 
4.234 142352.540 0.000 0.000 0.000 4.404 
4.244 142974.975 0.000 0.000 0.000 4.414 
4.254 140732.824 0.000 0.000 0.000 4.424 
4.264 141695.798 0.000 0.000 0.000 4.435 
4.274 142007.243 0.000 0.000 0.000 4.445 
4.284 141617.627 0.000 0.000 0.000 4.456 
4.294 142046.006 0.000 0.000 0.000 4.466 
4.304 143311.162 0.000 0.000 0.000 4.476 
4.314 143841.799 0.000 0.000 0.000 4.487 
4.324 143156.361 0.000 0.000 0.000 4.497 
4.334 141656.417 0.000 0.000 0.000 4.508 
4.344 141756.826 0.000 0.000 0.000 4.518 
4.354 142189.895 0.000 0.000 0.000 4.529 
4.364 142013.385 0.000 0.000 0.000 4.539 
4.374 143129.243 0.000 0.000 0.000 4.549 
4.384 142257.836 0.000 0.000 0.000 4.560 
4.394 142244.557 0.000 0.000 0.000 4.570 
4.404 142410.799 0.000 0.000 0.000 4.581 
4.414 141854.844 0.000 0.000 0.000 4.591 
4.424 142495.984 0.000 0.000 0.000 4.601 
4.434 142282.991 0.000 0.000 0.000 4.612 
4.444 143602.823 0.000 0.000 0.000 4.622 
4.454 142103.783 0.000 0.000 0.000 4.633 
4.464 142954.303 0.000 0.000 0.000 4.643 
4.474 143541.255 0.000 0.000 0.000 4.653 
4.484 143629.187 0.000 0.000 0.000 4.664 
4.494 141617.947 0.000 0.000 0.000 4.674 
4.505 143078.565 0.000 0.000 0.000 4.685 
4.515 141742.692 0.000 0.000 0.000 4.695 
4.525 142932.351 0.000 0.000 0.000 4.706 
4.535 143225.367 0.000 0.000 0.000 4.716 
4.545 142404.451 0.000 0.000 0.000 4.726 
4.555 142404.346 0.000 0.000 0.000 4.737 
4.565 141577.034 0.000 0.000 0.000 4.747 
4.575 144190.535 0.000 0.000 0.000 4.758 
4.585 143780.949 0.000 0.000 0.000 4.768 
4.595 141567.296 0.000 0.000 0.000 4.778 
4.605 142150.638 0.000 0.000 0.000 4.789 
4.615 141984.529 0.000 0.000 0.000 4.799 
4.625 143731.008 0.000 0.000 0.000 4.810 
4.635 142724.759 0.000 0.000 0.000 4.820 
4.645 142230.075 0.000 0.000 0.000 4.830 
4.655 142942.046 0.000 0.000 0.000 4.841 
4.665 141849.578 0.000 0.000 0.000 4.851 
4.675 142935.848 0.000 0.000 0.000 4.862 
4.685 143125.276 0.000 0.000 0.000 4.872 
4.695 142480.068 0.000 0.000 0.000 4.882 
4.705 142203.928 0.000 0.000 0.000 4.893 
4.715 141656.106 0.000 0.000 0.000 4.903 
4.725 143823.544 0.000 0.000 0.000 4.914 
4.735 143284.958 0.000 0.000 0.000 4.924 
4.745 141939.314 0.000 0.000 0.000 4.935 
4.755 142642.893 0.000 0.000 0.000 4.945 
4.765 142649.428 0.000 0.000 0.000 4.955 
4.775 142697.691 0.000 0.000 0.000 4.966 
4.785 142141.841 0.000 0.000 0.000 4.976 
4.795 142722.149 0.000 0.000 0.000 4.987 
4.805 141622.236 0.000 0.000 0.000 4.997 
4.815 143955.946 0.000 0.000 0.000 5.007 
4.825 142764.842 0.000 0.000 0.000 5.018 
4.835 142002.677 0.000 0.000 0.000 5.028 
4.845 142137.592 0.000 0.000 0.000 5.039 
4.855 142510.709 0.000 0.000 0.000 5.049 
4.865 143319.144 0.000 0.000 0.000 5.059 
4.875 141034.711 0.000 0.000 0.000 5.070 
4.885 141745.970 0.000 0.000 0.000 5.080 
4.895 142156.628 0.000 0.000 0.000 5.091 
4.905 141468.629 0.000 0.000 0.000 5.101 
4.915 143023.112 0.000 0.000 0.000 5.112 
4.925 142732.581 0.000 0.000 0.000 5.122 
4.935 143309.744 0.000 0.000 0.000 5.132 
4.945 143556.081 0.000 0.000 0.000 5.143 
4.955 142478.760 0.000 0.000 0.000 5.153 
4.965 142534.720 0.000 0.000 0.000 5.164 
4.975 141077.454 0.000 0.000 0.000 5.174 
4.985 143188.469 0.000 0.000 0.000 5.184 
4.995 142304.936 0.000 0.000 0.000 5.195 
5.005 142203.025 0.000 0.000 0.000 5.205 
5.015 142180.499 0.000 0.000 0.000 5.216 
5.025 143352.576 0.000 0.000 0.000 5.226 
5.035 142992.423 0.000 0.000 0.000 5.236 
5.045 143829.311 0.000 0.000 0.000 5.247 
5.055 143027.045 0.000 0.000 0.000 5.257 
5.065 142199.903 0.000 0.000 0.000 5.268 
5.075 142949.360 0.000 0.000 0.000 5.278 
5.085 142917.098 0.000 0.000 0.000 5.288 
5.095 142853.762 0.000 0.000 0.000 5.299 
5.105 142263.221 0.000 0.000 0.000 5.309 
5.115 143629.581 0.000 0.000 0.000 5.320 
5.125 142404.467 0.000 0.000 0.000 5.330 
5.135 142012.487 0.000 0.000 0.000 5.341 
5.145 142869.798 0.000 0.000 0.000 5.351 
5.155 143455.654 0.000 0.000 0.000 5.361 
5.165 142646.568 0.000 0.000 0.000 5.372 
5.175 143190.173 0.000 0.000 0.000 5.382 
5.185 143378.731 0.000 0.000 0.000 5.393 
5.195 142818.610 0.000 0.000 0.000 5.403 
5.205 143282.417 0.000 0.000 0.000 5.413 
5.215 142258.639 0.000 0.000 0.000 5.424 
5.225 142825.293 0.000 0.000 0.000 5.434 
5.235 142713.265 0.000 0.000 0.000 5.445 
5.245 141893.496 0.000 0.000 0.000 5.455 
5.255 141968.405 0.000 0.000 0.000 5.465 
5.265 142453.563 0.000 0.000 0.000 5.476 
5.275 142529.241 0.000 0.000 0.000 5.486 
5.285 142169.522 0.000 0.000 0.000 5.497 
5.295 142458.172 0.000 0.000 0.000 5.507 
5.305 142839.602 0.000 0.000 0.000 5.518 
5.315 141091.256 0.000 0.000 0.000 5.528 
5.325 141871.892 0.000 0.000 0.000 5.538 
5.335 143755.691 0.000 0.000 0.000 5.549 
5.345 141977.871 0.000 0.000 0.000 5.559 
5.355 142087.838 0.000 0.000 0.000 5.570 
5.365 142566.858 0.000 0.000 0.000 5.580 
5.375 141362.326 0.000 0.000 0.000 5.590 
5.385 142853.861 0.000 0.000 0.000 5.601 
5.395 142445.279 0.000 0.000 0.000 5.611 
5.405 142726.786 0.000 0.000 0.000 5.622 
5.415 142392.662 0.000 0.000 0.000 5.632 
5.425 144240.446 0.000 0.000 0.000 5.642 
5.435 143135.023 0.000 0.000 0.000 5.653 
5.445 143078.328 0.000 0.000 0.000 5.663 
5.455 141967.387 0.000 0.000 0.000 5.674 
5.465 141070.189 0.000 0.000 0.000 5.684 
5.475 142007.431 0.000 0.000 0.000 5.694 
5.485 143157.459 0.000 0.000 0.000 5.705 
5.495 143641.093 0.000 0.000 0.000 5.715 
5.506 141377.455 0.000 0.000 0.000 5.726 
5.516 142471.473 0.000 0.000 0.000 5.736 
5.526 141662.791 0.000 0.000 0.000 5.747 
5.536 142905.467 0.000 0.000 0.000 5.757 
5.546 141888.296 0.000 0.000 0.000 5.767 
5.556 142241.095 0.000 0.000 0.000 5.778 
5.566 142247.111 0.000 0.000 0.000 5.788 
5.576 142511.944 0.000 0.000 0.000 5.799 
5.586 142197.994 0.000 0.000 0.000 5.809 
5.596 142601.639 0.000 0.000 0.000 5.819 
5.606 142163.971 0.000 0.000 0.000 5.830 
5.616 142377.111 0.000 0.000 0.000 5.840 
5.626 142615.744 0.000 0.000 0.000 5.851 
5.636 141967.144 0.000 0.000 0.000 5.861 
5.646 142549.241 0.000 0.000 0.000 5.871 
5.656 142470.281 0.000 0.000 0.000 5.882 
5.666 141429.010 0.000 0.000 0.000 5.892 
5.676 141822.691 0.000 0.000 0.000 5.903 
5.686 142218.055 0.000 0.000 0.000 5.913 
5.696 144251.213 0.000 0.000 0.000 5.924 
5.706 142601.577 0.000 0.000 0.000 5.934 
5.716 143087.013 0.000 0.000 0.000 5.944 
5.726 142017.407 0.000 0.000 0.000 5.955 
5.736 142744.542 0.000 0.000 0.000 5.965 
5.746 142281.609 0.000 0.000 0.000 5.976 
5.756 141597.221 0.000 0.000 0.000 5.986 
5.766 143135.167 0.000 0.000 0.000 5.996 
5.776 142512.037 0.000 0.000 0.000 6.007 
5.786 142548.364 0.000 0.000 0.000 6.017 
5.796 142911.705 0.000 0.000 0.000 6.028 
5.806 142429.413 0.000 0.000 0.000 6.038 
5.816 141923.743 0.000 0.000 0.000 6.048 
5.826 142583.088 0.000 0.000 0.000 6.059 
5.836 141947.904 0.000 0.000 0.000 6.069 
5.846 142821.965 0.000 0.000 0.000 6.080 
5.856 142142.697 0.000 0.000 0.000 6.090 
5.866 141829.678 0.000 0.000 0.000 6.101 
5.876 143393.040 0.000 0.000 0.000 6.111 
5.886 142235.908 0.000 0.000 0.000 6.121 
5.896 144006.256 0.000 0.000 0.000 6.132 
5.906 143770.925 0.000 0.000 0.000 6.142 
5.916 142109.211 0.000 0.000 0.000 6.153 
5.926 142106.591 0.000 0.000 0.000 6.163 
5.936 142305.228 0.000 0.000 0.000 6.173 
5.946 142614.920 0.000 0.000 0.000 6.184 
5.956 140450.772 0.000 0.000 0.000 6.194 
5.966 142312.309 0.000 0.000 0.000 6.205 
5.976 142815.843 0.000 0.000 0.000 6.215 
5.986 144603.196 0.000 0.000 0.000 6.225 
5.996 142208.610 0.000 0.000 0.000 6.236 
6.006 143116.724 0.000 0.000 0.000 6.246 
6.016 142609.010 0.000 0.000 0.000 6.257 
6.026 142134.543 0.000 0.000 0.000 6.267 
6.036 142733.404 0.000 0.000 0.000 6.277 
6.046 141411.714 0.000 0.000 0.000 6.288 
6.056 141557.102 0.000 0.000 0.000 6.298 
6.066 143296.601 0.000 0.000 0.000 6.309 
6.076 142819.587 0.000 0.000 0.000 6.319 
6.086 141461.461 0.000 0.000 0.000 6.330 
6.096 143464.227 0.000 0.000 0.000 6.340 
6.106 142372.098 0.000 0.000 0.000 6.350 
6.116 143279.712 0.000 0.000 0.000 6.361 
6.126 142157.631 0.000 0.000 0.000 6.371 
6.136 140949.775 0.000 0.000 0.000 6.382 
6.146 142370.054 0.000 0.000 0.000 6.392 
6.156 142628.409 0.000 0.000 0.000 6.402 
6.166 142725.013 0.000 0.000 0.000 6.413 
6.176 142889.387 0.000 0.000 0.000 6.423 
6.186 142853.851 0.000 0.000 0.000 6.434 
6.196 142515.631 0.000 0.000 0.000 6.444 
6.206 143888.131 0.000 0.000 0.000 6.454 
6.216 141688.365 0.000 0.000 0.000 6.465 
6.226 142055.361 0.000 0.000 0.000 6.475 
6.236 141855.877 0.000 0.000 0.000 6.486 
6.246 142126.871 0.000 0.000 0.000 6.496 
6.256 142719.859 0.000 0.000 0.000 6.507 
6.266 141685.354 0.000 0.000 0.000 6.517 
6.276 141523.936 0.000 0.000 0.000 6.527 
6.286 142863.642 0.000 0.000 0.000 6.538 
6.296 141779.435 0.000 0.000 0.000 6.548 
6.306 141859.140 0.000 0.000 0.000 6.559 
6.316 142044.051 0.000 0.000 0.000 6.569 
6.326 141165.586 0.000 0.000 0.000 6.579 
6.336 141699.334 0.000 0.000 0.000 6.590 
6.346 142076.633 0.000 0.000 0.000 6.600 
6.356 142730.626 0.000 0.000 0.000 6.611 
6.366 143541.188 0.000 0.000 0.000 6.621 
6.376 142031.008 0.000 0.000 0.000 6.631 
6.386 143096.317 0.000 0.000 0.000 6.642 
6.396 141654.012 0.000 0.000 0.000 6.652 
6.406 143009.778 0.000 0.000 0.000 6.663 
6.416 143563.725 0.000 0.000 0.000 6.673 
6.426 142386.961 0.000 0.000 0.000 6.683 
6.436 140786.427 0.000 0.000 0.000 6.694 
6.446 142822.211 0.000 0.000 0.000 6.704 
6.456 142301.141 0.000 0.000 0.000 6.715 
6.466 142132.832 0.000 0.000 0.000 6.725 
6.476 142510.005 0.000 0.000 0.000 6.736 
6.486 142803.331 0.000 0.000 0.000 6.746 
6.496 143483.569 0.000 0.000 0.000 6.756 
6.507 141382.069 0.000 0.000 0.000 6.767 
6.517 142608.605 0.000 0.000 0.000 6.777 
6.527 144320.133 0.000 0.000 0.000 6.788 
6.537 141994.024 0.000 0.000 0.000 6.798 
6.547 140945.515 0.000 0.000 0.000 6.808 
6.557 141800.112 0.000 0.000 0.000 6.819 
6.567 142482.679 0.000 0.000 0.000 6.829 
6.577 142109.368 0.000 0.000 0.000 6.840 
6.587 142634.961 0.000 0.000 0.000 6.850 
6.597 141081.523 0.000 0.000 0.000 6.860 
6.607 142689.420 0.000 0.000 0.000 6.871 
6.617 142035.775 0.000 0.000 0.000 6.881 
6.627 143533.690 0.000 0.000 0.000 6.892 
6.637 143881.178 0.000 0.000 0.000 6.902 
6.647 142447.274 0.000 0.000 0.000 6.913 
6.657 142678.110 0.000 0.000 0.000 6.923 
6.667 143035.836 0.000 0.000 0.000 6.933 
6.677 142176.019 0.000 0.000 0.000 6.944 
6.687 141379.396 0.000 0.000 0.000 6.954 
6.697 141094.298 0.000 0.000 0.000 6.965 
6.707 142489.825 0.000 0.000 0.000 6.975 
6.717 141486.433 0.000 0.000 0.000 6.985 
6.727 143109.753 0.000 0.000 0.000 6.996 
6.737 143415.876 0.000 0.000 0.000 7.006 
6.747 142433.206 0.000 0.000 0.000 7.017 
6.757 142920.381 0.000 0.000 0.000 7.027 
6.767 143796.451 0.000 0.000 0.000 7.037 
6.777 141746.565 0.000 0.000 0.000 7.048 
6.787 141029.866 0.000 0.000 0.000 7.058 
6.797 142631.084 0.000 0.000 0.000 7.069 
6.807 142613.560 0.000 0.000 0.000 7.079 
6.817 143006.517 0.000 0.000 0.000 7.089 
6.827 141329.609 0.000 0.000 0.000 7.100 
6.837 142460.946 0.000 0.000 0.000 7.110 
6.847 141836.604 0.000 0.000 0.000 7.121 
6.857 139865.216 0.000 0.000 0.000 7.131 
6.867 141715.798 0.000 0.000 0.000 7.142 
6.877 141591.161 0.000 0.000 0.000 7.152 
6.887 141548.518 0.000 0.000 0.000 7.162 
6.897 142099.347 0.000 0.000 0.000 7.173 
6.907 143226.513 0.000 0.000 0.000 7.183 
6.917 141496.469 0.000 0.000 0.000 7.194 
6.927 142697.105 0.000 0.000 0.000 7.204 
6.937 141458.341 0.000 0.000 0.000 7.214 
6.947 142076.930 0.000 0.000 0.000 7.225 
6.957 142869.564 0.000 0.000 0.000 7.235 
6.967 140960.429 0.000 0.000 0.000 7.246 
6.977 143257.333 0.000 0.000 0.000 7.256 
6.987 142724.553 0.000 0.000 0.000 7.266 
6.997 142417.927 0.000 0.000 0.000 7.277 
7.007 142305.360 0.000 0.000 0.000 7.287 
7.017 141781.954 0.000 0.000 0.000 7.298 
7.027 142133.158 0.000 0.000 0.000 7.308 
7.037 142137.721 0.000 0.000 0.000 7.319 
7.047 141039.717 0.000 0.000 0.000 7.329 
7.057 142118.189 0.000 0.000 0.000 7.339 
7.067 141612.592 0.000 0.000 0.000 7.350 
7.077 142532.215 0.000 0.000 0.000 7.360 
7.087 141105.366 0.000 0.000 0.000 7.371 
7.097 143266.217 0.000 0.000 0.000 7.381 
7.107 144115.397 0.000 0.000 0.000 7.391 
7.117 142214.887 0.000 0.000 0.000 7.402 
7.127 142845.823 0.000 0.000 0.000 7.412 
7.137 142972.854 0.000 0.000 0.000 7.423 
7.147 141068.688 0.000 0.000 0.000 7.433 
7.157 142101.875 0.000 0.000 0.000 7.443 
7.167 142011.138 0.000 0.000 0.000 7.454 
7.177 141555.727 0.000 0.000 0.000 7.464 
7.187 142295.263 0.000 0.000 0.000 7.475 
7.197 142081.352 0.000 0.000 0.000 7.485 
7.207 142152.695 0.000 0.000 0.000 7.495 
7.217 140758.482 0.000 0.000 0.000 7.506 
7.227 142270.566 0.000 0.000 0.000 7.516 
7.237 141913.849 0.000 0.000 0.000 7.527 
7.247 141648.644 0.000 0.000 0.000 7.537 
7.257 141423.276 0.000 0.000 0.000 7.548 
7.267 141438.945 0.000 0.000 0.000 7.558 
7.277 141086.855 0.000 0.000 0.000 7.568 
7.287 143042.191 0.000 0.000 0.000 7.579 
7.297 141054.386 0.000 0.000 0.000 7.589 
7.307 142850.374 0.000 0.000 0.000 7.600 
7.317 141095.324 0.000 0.000 0.000 7.610 
7.327 140901.415 0.000 0.000 0.000 7.620 
7.337 140446.542 0.000 0.000 0.000 7.631 
7.347 141310.351 0.000 0.000 0.000 7.641 
7.357 142311.367 0.000 0.000 0.000 7.652 
7.367 141483.622 0.000 0.000 0.000 7.662 
7.377 141973.020 0.000 0.000 0.000 7.672 
7.387 142572.838 0.000 0.000 0.000 7.683 
7.397 140948.525 0.000 0.000 0.000 7.693 
7.407 141633.151 0.000 0.000 0.000 7.704 
7.417 141620.629 0.000 0.000 0.000 7.714 
7.427 141820.784 0.000 0.000 0.000 7.725 
7.437 143282.831 0.000 0.000 0.000 7.735 
7.447 142166.301 0.000 0.000 0.000 7.745 
7.457 140868.802 0.000 0.000 0.000 7.756 
7.467 141444.752 0.000 0.000 0.000 7.766 
7.477 142941.715 0.000 0.000 0.000 7.777 
7.487 141053.886 0.000 0.000 0.000 7.787 
7.497 140828.944 0.000 0.000 0.000 7.797 
7.508 142475.673 0.000 0.000 0.000 7.808 
7.518 141387.046 0.000 0.000 0.000 7.818 
7.528 142363.394 0.000 0.000 0.000 7.829 
7.538 142216.141 0.000 0.000 0.000 7.839 
7.548 141794.637 0.000 0.000 0.000 7.849 
7.558 141242.599 0.000 0.000 0.000 7.860 
7.568 142115.940 0.000 0.000 0.000 7.870 
7.578 141491.056 0.000 0.000 0.000 7.881 
7.588 141246.337 0.000 0.000 0.000 7.891 
7.598 142011.864 0.000 0.000 0.000 7.902 
7.608 141820.105 0.000 0.000 0.000 7.912 
7.618 141352.059 0.000 0.000 0.000 7.922 
7.628 143058.206 0.000 0.000 0.000 7.933 
7.638 142859.157 0.000 0.000 0.000 7.943 
7.648 142141.770 0.000 0.000 0.000 7.954 
7.658 141596.676 0.000 0.000 0.000 7.964 
7.668 142554.949 0.000 0.000 0.000 7.974 
7.678 141519.731 0.000 0.000 0.000 7.985 
7.688 141426.536 0.000 0.000 0.000 7.995 
7.698 142997.434 0.000 0.000 0.000 8.006 
7.708 143665.734 0.000 0.000 0.000 8.016 
7.718 141578.524 0.000 0.000 0.000 8.026 
7.728 142444.358 0.000 0.000 0.000 8.037 
7.738 142135.961 0.000 0.000 0.000 8.047 
7.748 141987.337 0.000 0.000 0.000 8.058 
7.758 141731.873 0.000 0.000 0.000 8.068 
7.768 141380.943 0.000 0.000 0.000 8.078 
7.778 141800.865 0.000 0.000 0.000 8.089 
7.788 142158.480 0.000 0.000 0.000 8.099 
7.798 141589.697 0.000 0.000 0.000 8.110 
7.808 141968.195 0.000 0.000 0.000 8.120 
7.818 142395.080 0.000 0.000 0.000 8.131 
7.828 140940.191 0.000 0.000 0.000 8.141 
7.838 141383.988 0.000 0.000 0.000 8.151 
7.848 142219.081 0.000 0.000 0.000 8.162 
7.858 141624.582 0.000 0.000 0.000 8.172 
7.868 141983.933 0.000 0.000 0.000 8.183 
7.878 141285.611 0.000 0.000 0.000 8.193 
7.888 142680.359 0.000 0.000 0.000 8.203 
7.898 142208.857 0.000 0.000 0.000 8.214 
7.908 141324.787 0.000 0.000 0.000 8.224 
7.918 140962.674 0.000 0.000 0.000 8.235 
7.928 142734.241 0.000 0.000 0.000 8.245 
7.938 142327.441 0.000 0.000 0.000 8.255 
7.948 140938.299 0.000 0.000 0.000 8.266 
7.958 142084.162 0.000 0.000 0.000 8.276 
7.968 141648.476 0.000 0.000 0.000 8.287 
7.978 141214.250 0.000 0.000 0.000 8.297 
7.988 141547.560 0.000 0.000 0.000 8.308 
7.998 142032.743 0.000 0.000 0.000 8.318 
8.008 141909.326 0.000 0.000 0.000 8.328 
8.018 141339.240 0.000 0.000 0.000 8.339 
8.028 140753.483 0.000 0.000 0.000 8.349 
8.038 142156.980 0.000 0.000 0.000 8.360 
8.048 141288.624 0.000 0.000 0.000 8.370 
8.058 141425.891 0.000 0.000 0.000 8.380 
8.068 140932.071 0.000 0.000 0.000 8.391 
8.078 142058.703 0.000 0.000 0.000 8.401 
8.088 142545.111 0.000 0.000 0.000 8.412 
8.098 141891.570 0.000 0.000 0.000 8.422 
8.108 141328.544 0.000 0.000 0.000 8.432 
8.118 142071.699 0.000 0.000 0.000 8.443 
8.128 141251.781 0.000 0.000 0.000 8.453 
8.138 141231.084 0.000 0.000 0.000 8.464 
8.148 140702.293 0.000 0.000 0.000 8.474 
8.158 141488.676 0.000 0.000 0.000 8.484 
8.168 141207.842 0.000 0.000 0.000 8.495 
8.178 141391.797 0.000 0.000 0.000 8.505 
8.188 141358.134 0.000 0.000 0.000 8.516 
8.198 140527.608 0.000 0.000 0.000 8.526 
8.208 142158.415 0.000 0.000 0.000 8.537 
8.218 141557.449 0.000 0.000 0.000 8.547 
8.228 140965.583 0.000 0.000 0.000 8.557 
8.238 141262.158 0.000 0.000 0.000 8.568 
8.248 141459.225 0.000 0.000 0.000 8.578 
8.258 141902.189 0.000 0.000 0.000 8.589 
8.268 142205.686 0.000 0.000 0.000 8.599 
8.278 141252.788 0.000 0.000 0.000 8.609 
8.288 140413.000 0.000 0.000 0.000 8.620 
8.298 141919.694 0.000 0.000 0.000 8.630 
8.308 141106.801 0.000 0.000 0.000 8.641 
8.318 141552.202 0.000 0.000 0.000 8.651 
8.328 141154.869 0.000 0.000 0.000 8.661 
8.338 141186.658 0.000 0.000 0.000 8.672 
8.348 141955.320 0.000 0.000 0.000 8.682 
8.358 140780.921 0.000 0.000 0.000 8.693 
8.368 141608.737 0.000 0.000 0.000 8.703 
8.378 142077.335 0.000 0.000 0.000 8.714 
8.388 141008.129 0.000 0.000 0.000 8.724 
8.398 141478.762 0.000 0.000 0.000 8.734 
8.408 141291.145 0.000 0.000 0.000 8.745 
8.418 141372.911 0.000 0.000 0.000 8.755 
8.428 140400.005 0.000 0.000 0.000 8.766 
8.438 140719.852 0.000 0.000 0.000 8.776 
8.448 140533.611 0.000 0.000 0.000 8.786 
8.458 140466.420 0.000 0.000 0.000 8.797 
8.468 143031.766 0.000 0.000 0.000 8.807 
8.478 140137.484 0.000 0.000 0.000 8.818 
8.488 141342.139 0.000 0.000 0.000 8.828 
8.498 140691.030 0.000 0.000 0.000 8.838 
8.509 140766.214 0.000 0.000 0.000 8.849 
8.519 141551.003 0.000 0.000 0.000 8.859 
8.529 139232.962 0.000 0.000 0.000 8.870 
8.539 141139.703 0.000 0.000 0.000 8.880 
8.549 141819.655 0.000 0.000 0.000 8.890 
8.559 141885.784 0.000 0.000 0.000 8.901 
8.569 141346.193 0.000 0.000 0.000 8.911 
8.579 142585.986 0.000 0.000 0.000 8.922 
8.589 139684.602 0.000 0.000 0.000 8.932 
8.599 142489.466 0.000 0.000 0.000 8.943 
8.609 140824.934 0.000 0.000 0.000 8.953 
8.619 141208.156 0.000 0.000 0.000 8.963 
8.629 142626.064 0.000 0.000 0.000 8.974 
8.639 142488.407 0.000 0.000 0.000 8.984 
8.649 142122.485 0.000 0.000 0.000 8.995 
8.659 140525.193 0.000 0.000 0.000 9.005 
8.669 140791.931 0.000 0.000 0.000 9.015 
8.679 141351.359 0.000 0.000 0.000 9.026 
8.689 141035.077 0.000 0.000 0.000 9.036 
8.699 140633.722 0.000 0.000 0.000 9.047 
8.709 141310.277 0.000 0.000 0.000 9.057 
8.719 141248.409 0.000 0.000 0.000 9.067 
8.729 142176.025 0.000 0.000 0.000 9.078 
8.739 141860.633 0.000 0.000 0.000 9.088 
8.749 141253.563 0.000 0.000 0.000 9.099 
8.759 141388.252 0.000 0.000 0.000 9.109 
8.769 141038.244 0.000 0.000 0.000 9.120 
8.779 140210.252 0.000 0.000 0.000 9.130 
8.789 140686.594 0.000 0.000 0.000 9.140 
8.799 141664.864 0.000 0.000 0.000 9.151 
8.809 140583.354 0.000 0.000 0.000 9.161 
8.819 141194.804 0.000 0.000 0.000 9.172 
8.829 141291.396 0.000 0.000 0.000 9.182 
8.839 141099.494 0.000 0.000 0.000 9.192 
8.849 140837.669 0.000 0.000 0.000 9.203 
8.859 141938.165 0.000 0.000 0.000 9.213 
8.869 140622.486 0.000 0.000 0.000 9.224 
8.879 141363.365 0.000 0.000 0.000 9.234 
8.889 141191.774 0.000 0.000 0.000 9.244 
8.899 140689.718 0.000 0.000 0.000 9.255 
8.909 141331.115 0.000 0.000 0.000 9.265 
8.919 141304.358 0.000 0.000 0.000 9.276 
8.929 139975.263 0.000 0.000 0.000 9.286 
8.939 141368.704 0.000 0.000 0.000 9.296 
8.949 141849.865 0.000 0.000 0.000 9.307 
8.959 141173.432 0.000 0.000 0.000 9.317 
8.969 139631.955 0.000 0.000 0.000 9.328 
8.979 142126.870 0.000 0.000 0.000 9.338 
8.989 141269.426 0.000 0.000 0.000 9.349 
8.999 141242.713 0.000 0.000 0.000 9.359 
9.009 141979.609 0.000 0.000 0.000 9.369 
9.019 142944.842 0.000 0.000 0.000 9.380 
9.029 141737.374 0.000 0.000 0.000 9.390 
9.039 141799.773 0.000 0.000 0.000 9.401 
9.049 140271.829 0.000 0.000 0.000 9.411 
9.059 141388.040 0.000 0.000 0.000 9.421 
9.069 140978.866 0.000 0.000 0.000 9.432 
9.079 139656.497 0.000 0.000 0.000 9.442 
9.089 141289.606 0.000 0.000 0.000 9.453 
9.099 140633.779 0.000 0.000 0.000 9.463 
9.109 140381.224 0.000 0.000 0.000 9.473 
9.119 141501.011 0.000 0.000 0.000 9.484 
9.129 140329.074 0.000 0.000 0.000 9.494 
9.139 141653.456 0.000 0.000 0.000 9.505 
9.149 140467.837 0.000 0.000 0.000 9.515 
9.159 141354.240 0.000 0.000 0.000 9.526 
9.169 140473.794 0.000 0.000 0.000 9.536 
9.179 140622.845 0.000 0.000 0.000 9.546 
9.189 141791.195 0.000 0.000 0.000 9.557 
9.199 140599.691 0.000 0.000 0.000 9.567 
9.209 140814.905 0.000 0.000 0.000 9.578 
9.219 142265.980 0.000 0.000 0.000 9.588 
9.229 141010.970 0.000 0.000 0.000 9.598 
9.239 140977.649 0.000 0.000 0.000 9.609 
9.249 139974.457 0.000 0.000 0.000 9.619 
9.259 140873.813 0.000 0.000 0.000 9.630 
9.269 140638.192 0.000 0.000 0.000 9.640 
9.279 140806.026 0.000 0.000 0.000 9.650 
9.289 140146.384 0.000 0.000 0.000 9.661 
9.299 140989.377 0.000 0.000 0.000 9.671 
9.309 140191.271 0.000 0.000 0.000 9.682 
9.319 140726.566 0.000 0.000 0.000 9.692 
9.329 140123.656 0.000 0.000 0.000 9.703 
9.339 141202.418 0.000 0.000 0.000 9.713 
9.349 141228.737 0.000 0.000 0.000 9.723 
9.359 139463.695 0.000 0.000 0.000 9.734 
9.369 139809.192 0.000 0.000 0.000 9.744 
9.379 140866.704 0.000 0.000 0.000 9.755 
9.389 141230.497 0.000 0.000 0.000 9.765 
9.399 140450.214 0.000 0.000 0.000 9.775 
9.409 140315.042 0.000 0.000 0.000 9.786 
9.419 140158.286 0.000 0.000 0.000 9.796 
9.429 139317.400 0.000 0.000 0.000 9.807 
9.439 140447.607 0.000 0.000 0.000 9.817 
9.449 141848.136 0.000 0.000 0.000 9.827 
9.459 140083.489 0.000 0.000 0.000 9.838 
9.469 139957.769 0.000 0.000 0.000 9.848 
9.479 141348.103 0.000 0.000 0.000 9.859 
9.489 141653.591 0.000 0.000 0.000 9.869 
9.499 141019.660 0.000 0.000 0.000 9.879 
9.510 141129.894 0.000 0.000 0.000 9.890 
9.520 140882.952 0.000 0.000 0.000 9.900 
9.530 140043.400 0.000 0.000 0.000 9.911 
9.540 141003.246 0.000 0.000 0.000 9.921 
9.550 140623.608 0.000 0.000 0.000 9.932 
9.560 139390.035 0.000 0.000 0.000 9.942 
9.570 139881.198 0.000 0.000 0.000 9.952 
9.580 140313.124 0.000 0.000 0.000 9.963 
9.590 138983.242 0.000 0.000 0.000 9.973 
9.600 141500.275 0.000 0.000 0.000 9.984 
9.610 140517.250 0.000 0.000 0.000 9.994 
9.620 140119.779 0.000 0.000 0.000 10.004 
9.630 140133.482 0.000 0.000 0.000 10.015 
9.640 141657.401 0.000 0.000 0.000 10.025 
9.650 141426.128 0.000 0.000 0.000 10.036 
9.660 139640.885 0.000 0.000 0.000 10.046 
9.670 139387.117 0.000 0.000 0.000 10.056 
9.680 140352.124 0.000 0.000 0.000 10.067 
9.690 140616.818 0.000 0.000 0.000 10.077 
9.700 140711.535 0.000 0.000 0.000 10.088 
9.710 140585.645 0.000 0.000 0.000 10.098 
9.720 140225.836 0.000 0.000 0.000 10.109 
9.730 139564.161 0.000 0.000 0.000 10.119 
9.740 141294.637 0.000 0.000 0.000 10.129 
9.750 142026.058 0.000 0.000 0.000 10.140 
9.760 139370.902 0.000 0.000 0.000 10.150 
9.770 139520.375 0.000 0.000 0.000 10.161 
9.780 140932.360 0.000 0.000 0.000 10.171 
9.790 139304.581 0.000 0.000 0.000 10.181 
9.800 140147.719 0.000 0.000 0.000 10.192 
9.810 140913.957 0.000 0.000 0.000 10.202 
9.820 139386.939 0.000 0.000 0.000 10.213 
9.830 140471.128 0.000 0.000 0.000 10.223 
9.840 139099.331 0.000 0.000 0.000 10.233 
9.850 140684.011 0.000 0.000 0.000 10.244 
9.860 140981.116 0.000 0.000 0.000 10.254 
9.870 139468.512 0.000 0.000 0.000 10.265 
9.880 140546.126 0.000 0.000 0.000 10.275 
9.890 140018.538 0.000 0.000 0.000 10.285 
9.900 139780.754 0.000 0.000 0.000 10.296 
9.910 139916.087 0.000 0.000 0.000 10.306 
9.920 140060.438 0.000 0.000 0.000 10.317 
9.930 139559.112 0.000 0.000 0.000 10.327 
9.940 140013.712 0.000 0.000 0.000 10.338 
9.950 140434.929 0.000 0.000 0.000 10.348 
9.960 139661.630 0.000 0.000 0.000 10.358 
9.970 139217.769 0.000 0.000 0.000 10.369 
9.980 137970.383 0.000 0.000 0.000 10.379 
9.990 139765.657 0.000 0.000 0.000 10.390 
10.000 139060.038 0.000 0.000 0.000 10.400 
